# E (eV)   ldos(E)   pdos(E)   
 -22.023  0.187E-05  0.187E-05
 -22.013  0.293E-05  0.293E-05
 -22.003  0.454E-05  0.454E-05
 -21.993  0.697E-05  0.697E-05
 -21.983  0.106E-04  0.106E-04
 -21.973  0.160E-04  0.160E-04
 -21.963  0.238E-04  0.238E-04
 -21.953  0.351E-04  0.351E-04
 -21.943  0.514E-04  0.514E-04
 -21.933  0.744E-04  0.744E-04
 -21.923  0.107E-03  0.107E-03
 -21.913  0.152E-03  0.152E-03
 -21.903  0.213E-03  0.213E-03
 -21.893  0.297E-03  0.297E-03
 -21.883  0.411E-03  0.411E-03
 -21.873  0.562E-03  0.562E-03
 -21.863  0.761E-03  0.761E-03
 -21.853  0.102E-02  0.102E-02
 -21.843  0.136E-02  0.136E-02
 -21.833  0.179E-02  0.179E-02
 -21.823  0.234E-02  0.234E-02
 -21.813  0.302E-02  0.302E-02
 -21.803  0.387E-02  0.387E-02
 -21.793  0.491E-02  0.491E-02
 -21.783  0.618E-02  0.618E-02
 -21.773  0.770E-02  0.770E-02
 -21.763  0.951E-02  0.951E-02
 -21.753  0.116E-01  0.116E-01
 -21.743  0.141E-01  0.141E-01
 -21.733  0.170E-01  0.170E-01
 -21.723  0.202E-01  0.202E-01
 -21.713  0.238E-01  0.238E-01
 -21.703  0.279E-01  0.279E-01
 -21.693  0.323E-01  0.323E-01
 -21.683  0.371E-01  0.371E-01
 -21.673  0.423E-01  0.423E-01
 -21.663  0.477E-01  0.477E-01
 -21.653  0.534E-01  0.534E-01
 -21.643  0.593E-01  0.593E-01
 -21.633  0.654E-01  0.654E-01
 -21.623  0.714E-01  0.714E-01
 -21.613  0.775E-01  0.775E-01
 -21.603  0.835E-01  0.835E-01
 -21.593  0.893E-01  0.893E-01
 -21.583  0.949E-01  0.949E-01
 -21.573  0.100E+00  0.100E+00
 -21.563  0.105E+00  0.105E+00
 -21.553  0.110E+00  0.110E+00
 -21.543  0.115E+00  0.115E+00
 -21.533  0.119E+00  0.119E+00
 -21.523  0.123E+00  0.123E+00
 -21.513  0.126E+00  0.126E+00
 -21.503  0.130E+00  0.130E+00
 -21.493  0.133E+00  0.133E+00
 -21.483  0.136E+00  0.136E+00
 -21.473  0.139E+00  0.139E+00
 -21.463  0.142E+00  0.142E+00
 -21.453  0.144E+00  0.144E+00
 -21.443  0.146E+00  0.146E+00
 -21.433  0.148E+00  0.148E+00
 -21.423  0.150E+00  0.150E+00
 -21.413  0.151E+00  0.151E+00
 -21.403  0.152E+00  0.152E+00
 -21.393  0.152E+00  0.152E+00
 -21.383  0.151E+00  0.151E+00
 -21.373  0.150E+00  0.150E+00
 -21.363  0.149E+00  0.149E+00
 -21.353  0.147E+00  0.147E+00
 -21.343  0.144E+00  0.144E+00
 -21.333  0.141E+00  0.141E+00
 -21.323  0.138E+00  0.138E+00
 -21.313  0.135E+00  0.135E+00
 -21.303  0.132E+00  0.132E+00
 -21.293  0.130E+00  0.130E+00
 -21.283  0.127E+00  0.127E+00
 -21.273  0.125E+00  0.125E+00
 -21.263  0.124E+00  0.124E+00
 -21.253  0.124E+00  0.124E+00
 -21.243  0.124E+00  0.124E+00
 -21.233  0.125E+00  0.125E+00
 -21.223  0.127E+00  0.127E+00
 -21.213  0.130E+00  0.130E+00
 -21.203  0.133E+00  0.133E+00
 -21.193  0.136E+00  0.136E+00
 -21.183  0.140E+00  0.140E+00
 -21.173  0.144E+00  0.144E+00
 -21.163  0.148E+00  0.148E+00
 -21.153  0.152E+00  0.152E+00
 -21.143  0.155E+00  0.155E+00
 -21.133  0.157E+00  0.157E+00
 -21.123  0.159E+00  0.159E+00
 -21.113  0.160E+00  0.160E+00
 -21.103  0.161E+00  0.161E+00
 -21.093  0.160E+00  0.160E+00
 -21.083  0.159E+00  0.159E+00
 -21.073  0.156E+00  0.156E+00
 -21.063  0.153E+00  0.153E+00
 -21.053  0.150E+00  0.150E+00
 -21.043  0.145E+00  0.145E+00
 -21.033  0.141E+00  0.141E+00
 -21.023  0.136E+00  0.136E+00
 -21.013  0.131E+00  0.131E+00
 -21.003  0.125E+00  0.125E+00
 -20.993  0.120E+00  0.120E+00
 -20.983  0.115E+00  0.115E+00
 -20.973  0.110E+00  0.110E+00
 -20.963  0.106E+00  0.106E+00
 -20.953  0.102E+00  0.102E+00
 -20.943  0.981E-01  0.981E-01
 -20.933  0.954E-01  0.954E-01
 -20.923  0.935E-01  0.935E-01
 -20.913  0.925E-01  0.925E-01
 -20.903  0.924E-01  0.924E-01
 -20.893  0.934E-01  0.934E-01
 -20.883  0.953E-01  0.953E-01
 -20.873  0.983E-01  0.983E-01
 -20.863  0.102E+00  0.102E+00
 -20.853  0.107E+00  0.107E+00
 -20.843  0.113E+00  0.113E+00
 -20.833  0.119E+00  0.119E+00
 -20.823  0.126E+00  0.126E+00
 -20.813  0.133E+00  0.133E+00
 -20.803  0.140E+00  0.140E+00
 -20.793  0.147E+00  0.147E+00
 -20.783  0.153E+00  0.153E+00
 -20.773  0.159E+00  0.159E+00
 -20.763  0.164E+00  0.164E+00
 -20.753  0.168E+00  0.168E+00
 -20.743  0.171E+00  0.171E+00
 -20.733  0.173E+00  0.173E+00
 -20.723  0.173E+00  0.173E+00
 -20.713  0.172E+00  0.172E+00
 -20.703  0.170E+00  0.170E+00
 -20.693  0.167E+00  0.167E+00
 -20.683  0.162E+00  0.162E+00
 -20.673  0.157E+00  0.157E+00
 -20.663  0.151E+00  0.151E+00
 -20.653  0.144E+00  0.144E+00
 -20.643  0.137E+00  0.137E+00
 -20.633  0.130E+00  0.130E+00
 -20.623  0.123E+00  0.123E+00
 -20.613  0.117E+00  0.117E+00
 -20.603  0.111E+00  0.111E+00
 -20.593  0.105E+00  0.105E+00
 -20.583  0.999E-01  0.999E-01
 -20.573  0.955E-01  0.955E-01
 -20.563  0.917E-01  0.917E-01
 -20.553  0.885E-01  0.885E-01
 -20.543  0.859E-01  0.859E-01
 -20.533  0.838E-01  0.838E-01
 -20.523  0.822E-01  0.822E-01
 -20.513  0.810E-01  0.810E-01
 -20.503  0.803E-01  0.803E-01
 -20.493  0.799E-01  0.799E-01
 -20.483  0.799E-01  0.799E-01
 -20.473  0.802E-01  0.802E-01
 -20.463  0.809E-01  0.809E-01
 -20.453  0.820E-01  0.820E-01
 -20.443  0.835E-01  0.835E-01
 -20.433  0.855E-01  0.855E-01
 -20.423  0.880E-01  0.880E-01
 -20.413  0.910E-01  0.910E-01
 -20.403  0.945E-01  0.945E-01
 -20.393  0.986E-01  0.986E-01
 -20.383  0.103E+00  0.103E+00
 -20.373  0.108E+00  0.108E+00
 -20.363  0.113E+00  0.113E+00
 -20.353  0.119E+00  0.119E+00
 -20.343  0.125E+00  0.125E+00
 -20.333  0.131E+00  0.131E+00
 -20.323  0.136E+00  0.136E+00
 -20.313  0.142E+00  0.142E+00
 -20.303  0.147E+00  0.147E+00
 -20.293  0.152E+00  0.152E+00
 -20.283  0.157E+00  0.157E+00
 -20.273  0.160E+00  0.160E+00
 -20.263  0.164E+00  0.164E+00
 -20.253  0.166E+00  0.166E+00
 -20.243  0.168E+00  0.168E+00
 -20.233  0.169E+00  0.169E+00
 -20.223  0.169E+00  0.169E+00
 -20.213  0.168E+00  0.168E+00
 -20.203  0.167E+00  0.167E+00
 -20.193  0.165E+00  0.165E+00
 -20.183  0.162E+00  0.162E+00
 -20.173  0.158E+00  0.158E+00
 -20.163  0.154E+00  0.154E+00
 -20.153  0.148E+00  0.148E+00
 -20.143  0.142E+00  0.142E+00
 -20.133  0.136E+00  0.136E+00
 -20.123  0.129E+00  0.129E+00
 -20.113  0.122E+00  0.122E+00
 -20.103  0.115E+00  0.115E+00
 -20.093  0.107E+00  0.107E+00
 -20.083  0.995E-01  0.995E-01
 -20.073  0.922E-01  0.922E-01
 -20.063  0.852E-01  0.852E-01
 -20.053  0.787E-01  0.787E-01
 -20.043  0.729E-01  0.729E-01
 -20.033  0.677E-01  0.677E-01
 -20.023  0.633E-01  0.633E-01
 -20.013  0.598E-01  0.598E-01
 -20.003  0.571E-01  0.571E-01
 -19.993  0.553E-01  0.553E-01
 -19.983  0.544E-01  0.544E-01
 -19.973  0.543E-01  0.543E-01
 -19.963  0.550E-01  0.550E-01
 -19.953  0.564E-01  0.564E-01
 -19.943  0.584E-01  0.584E-01
 -19.933  0.610E-01  0.610E-01
 -19.923  0.640E-01  0.640E-01
 -19.913  0.674E-01  0.674E-01
 -19.903  0.712E-01  0.712E-01
 -19.893  0.752E-01  0.752E-01
 -19.883  0.795E-01  0.795E-01
 -19.873  0.839E-01  0.839E-01
 -19.863  0.886E-01  0.886E-01
 -19.853  0.934E-01  0.934E-01
 -19.843  0.983E-01  0.983E-01
 -19.833  0.103E+00  0.103E+00
 -19.823  0.109E+00  0.109E+00
 -19.813  0.114E+00  0.114E+00
 -19.803  0.119E+00  0.119E+00
 -19.793  0.125E+00  0.125E+00
 -19.783  0.130E+00  0.130E+00
 -19.773  0.135E+00  0.135E+00
 -19.763  0.140E+00  0.140E+00
 -19.753  0.144E+00  0.144E+00
 -19.743  0.148E+00  0.148E+00
 -19.733  0.152E+00  0.152E+00
 -19.723  0.154E+00  0.154E+00
 -19.713  0.156E+00  0.156E+00
 -19.703  0.157E+00  0.157E+00
 -19.693  0.158E+00  0.158E+00
 -19.683  0.157E+00  0.157E+00
 -19.673  0.156E+00  0.156E+00
 -19.663  0.154E+00  0.154E+00
 -19.653  0.151E+00  0.151E+00
 -19.643  0.148E+00  0.148E+00
 -19.633  0.144E+00  0.144E+00
 -19.623  0.141E+00  0.141E+00
 -19.613  0.137E+00  0.137E+00
 -19.603  0.133E+00  0.133E+00
 -19.593  0.130E+00  0.130E+00
 -19.583  0.127E+00  0.127E+00
 -19.573  0.125E+00  0.125E+00
 -19.563  0.122E+00  0.122E+00
 -19.553  0.121E+00  0.121E+00
 -19.543  0.119E+00  0.119E+00
 -19.533  0.118E+00  0.118E+00
 -19.523  0.117E+00  0.117E+00
 -19.513  0.117E+00  0.117E+00
 -19.503  0.116E+00  0.116E+00
 -19.493  0.115E+00  0.115E+00
 -19.483  0.113E+00  0.113E+00
 -19.473  0.111E+00  0.111E+00
 -19.463  0.109E+00  0.109E+00
 -19.453  0.106E+00  0.106E+00
 -19.443  0.102E+00  0.102E+00
 -19.433  0.980E-01  0.980E-01
 -19.423  0.932E-01  0.932E-01
 -19.413  0.879E-01  0.879E-01
 -19.403  0.823E-01  0.823E-01
 -19.393  0.765E-01  0.765E-01
 -19.383  0.705E-01  0.705E-01
 -19.373  0.646E-01  0.646E-01
 -19.363  0.589E-01  0.589E-01
 -19.353  0.535E-01  0.535E-01
 -19.343  0.486E-01  0.486E-01
 -19.333  0.444E-01  0.444E-01
 -19.323  0.408E-01  0.408E-01
 -19.313  0.381E-01  0.381E-01
 -19.303  0.362E-01  0.362E-01
 -19.293  0.353E-01  0.353E-01
 -19.283  0.354E-01  0.354E-01
 -19.273  0.364E-01  0.364E-01
 -19.263  0.385E-01  0.385E-01
 -19.253  0.415E-01  0.415E-01
 -19.243  0.455E-01  0.455E-01
 -19.233  0.505E-01  0.505E-01
 -19.223  0.562E-01  0.562E-01
 -19.213  0.627E-01  0.627E-01
 -19.203  0.699E-01  0.699E-01
 -19.193  0.776E-01  0.776E-01
 -19.183  0.857E-01  0.857E-01
 -19.173  0.940E-01  0.940E-01
 -19.163  0.103E+00  0.103E+00
 -19.153  0.111E+00  0.111E+00
 -19.143  0.119E+00  0.119E+00
 -19.133  0.127E+00  0.127E+00
 -19.123  0.135E+00  0.135E+00
 -19.113  0.142E+00  0.142E+00
 -19.103  0.148E+00  0.148E+00
 -19.093  0.154E+00  0.154E+00
 -19.083  0.158E+00  0.158E+00
 -19.073  0.162E+00  0.162E+00
 -19.063  0.165E+00  0.165E+00
 -19.053  0.168E+00  0.168E+00
 -19.043  0.169E+00  0.169E+00
 -19.033  0.169E+00  0.169E+00
 -19.023  0.169E+00  0.169E+00
 -19.013  0.168E+00  0.168E+00
 -19.003  0.167E+00  0.167E+00
 -18.993  0.164E+00  0.164E+00
 -18.983  0.161E+00  0.161E+00
 -18.973  0.158E+00  0.158E+00
 -18.963  0.154E+00  0.154E+00
 -18.953  0.150E+00  0.150E+00
 -18.943  0.145E+00  0.145E+00
 -18.933  0.139E+00  0.139E+00
 -18.923  0.134E+00  0.134E+00
 -18.913  0.128E+00  0.128E+00
 -18.903  0.122E+00  0.122E+00
 -18.893  0.115E+00  0.115E+00
 -18.883  0.109E+00  0.109E+00
 -18.873  0.103E+00  0.103E+00
 -18.863  0.972E-01  0.972E-01
 -18.853  0.916E-01  0.916E-01
 -18.843  0.865E-01  0.865E-01
 -18.833  0.820E-01  0.820E-01
 -18.823  0.783E-01  0.783E-01
 -18.813  0.753E-01  0.753E-01
 -18.803  0.732E-01  0.732E-01
 -18.793  0.719E-01  0.719E-01
 -18.783  0.716E-01  0.716E-01
 -18.773  0.720E-01  0.720E-01
 -18.763  0.732E-01  0.732E-01
 -18.753  0.750E-01  0.750E-01
 -18.743  0.773E-01  0.773E-01
 -18.733  0.799E-01  0.799E-01
 -18.723  0.827E-01  0.827E-01
 -18.713  0.855E-01  0.855E-01
 -18.703  0.881E-01  0.881E-01
 -18.693  0.903E-01  0.903E-01
 -18.683  0.920E-01  0.920E-01
 -18.673  0.931E-01  0.931E-01
 -18.663  0.934E-01  0.934E-01
 -18.653  0.930E-01  0.930E-01
 -18.643  0.917E-01  0.917E-01
 -18.633  0.896E-01  0.896E-01
 -18.623  0.867E-01  0.867E-01
 -18.613  0.831E-01  0.831E-01
 -18.603  0.790E-01  0.790E-01
 -18.593  0.744E-01  0.744E-01
 -18.583  0.695E-01  0.695E-01
 -18.573  0.644E-01  0.644E-01
 -18.563  0.594E-01  0.594E-01
 -18.553  0.546E-01  0.546E-01
 -18.543  0.502E-01  0.502E-01
 -18.533  0.462E-01  0.462E-01
 -18.523  0.429E-01  0.429E-01
 -18.513  0.403E-01  0.403E-01
 -18.503  0.387E-01  0.387E-01
 -18.493  0.379E-01  0.379E-01
 -18.483  0.382E-01  0.382E-01
 -18.473  0.396E-01  0.396E-01
 -18.463  0.421E-01  0.421E-01
 -18.453  0.456E-01  0.456E-01
 -18.443  0.503E-01  0.503E-01
 -18.433  0.560E-01  0.560E-01
 -18.423  0.627E-01  0.627E-01
 -18.413  0.703E-01  0.703E-01
 -18.403  0.787E-01  0.787E-01
 -18.393  0.877E-01  0.877E-01
 -18.383  0.972E-01  0.972E-01
 -18.373  0.107E+00  0.107E+00
 -18.363  0.117E+00  0.117E+00
 -18.353  0.127E+00  0.127E+00
 -18.343  0.136E+00  0.136E+00
 -18.333  0.145E+00  0.145E+00
 -18.323  0.153E+00  0.153E+00
 -18.313  0.160E+00  0.160E+00
 -18.303  0.166E+00  0.166E+00
 -18.293  0.171E+00  0.171E+00
 -18.283  0.175E+00  0.175E+00
 -18.273  0.177E+00  0.177E+00
 -18.263  0.178E+00  0.178E+00
 -18.253  0.177E+00  0.177E+00
 -18.243  0.176E+00  0.176E+00
 -18.233  0.173E+00  0.173E+00
 -18.223  0.170E+00  0.170E+00
 -18.213  0.165E+00  0.165E+00
 -18.203  0.161E+00  0.161E+00
 -18.193  0.156E+00  0.156E+00
 -18.183  0.151E+00  0.151E+00
 -18.173  0.146E+00  0.146E+00
 -18.163  0.141E+00  0.141E+00
 -18.153  0.136E+00  0.136E+00
 -18.143  0.132E+00  0.132E+00
 -18.133  0.128E+00  0.128E+00
 -18.123  0.125E+00  0.125E+00
 -18.113  0.121E+00  0.121E+00
 -18.103  0.118E+00  0.118E+00
 -18.093  0.115E+00  0.115E+00
 -18.083  0.112E+00  0.112E+00
 -18.073  0.108E+00  0.108E+00
 -18.063  0.105E+00  0.105E+00
 -18.053  0.101E+00  0.101E+00
 -18.043  0.966E-01  0.966E-01
 -18.033  0.922E-01  0.922E-01
 -18.023  0.874E-01  0.874E-01
 -18.013  0.825E-01  0.825E-01
 -18.003  0.774E-01  0.774E-01
 -17.993  0.723E-01  0.723E-01
 -17.983  0.672E-01  0.672E-01
 -17.973  0.624E-01  0.624E-01
 -17.963  0.578E-01  0.578E-01
 -17.953  0.538E-01  0.538E-01
 -17.943  0.503E-01  0.503E-01
 -17.933  0.475E-01  0.475E-01
 -17.923  0.454E-01  0.454E-01
 -17.913  0.442E-01  0.442E-01
 -17.903  0.438E-01  0.438E-01
 -17.893  0.442E-01  0.442E-01
 -17.883  0.455E-01  0.455E-01
 -17.873  0.476E-01  0.476E-01
 -17.863  0.503E-01  0.503E-01
 -17.853  0.537E-01  0.537E-01
 -17.843  0.575E-01  0.575E-01
 -17.833  0.616E-01  0.616E-01
 -17.823  0.660E-01  0.660E-01
 -17.813  0.703E-01  0.703E-01
 -17.803  0.745E-01  0.745E-01
 -17.793  0.784E-01  0.784E-01
 -17.783  0.819E-01  0.819E-01
 -17.773  0.848E-01  0.848E-01
 -17.763  0.870E-01  0.870E-01
 -17.753  0.885E-01  0.885E-01
 -17.743  0.893E-01  0.893E-01
 -17.733  0.893E-01  0.893E-01
 -17.723  0.886E-01  0.886E-01
 -17.713  0.872E-01  0.872E-01
 -17.703  0.853E-01  0.853E-01
 -17.693  0.830E-01  0.830E-01
 -17.683  0.805E-01  0.805E-01
 -17.673  0.779E-01  0.779E-01
 -17.663  0.754E-01  0.754E-01
 -17.653  0.732E-01  0.732E-01
 -17.643  0.713E-01  0.713E-01
 -17.633  0.700E-01  0.700E-01
 -17.623  0.694E-01  0.694E-01
 -17.613  0.696E-01  0.696E-01
 -17.603  0.706E-01  0.706E-01
 -17.593  0.724E-01  0.724E-01
 -17.583  0.750E-01  0.750E-01
 -17.573  0.785E-01  0.785E-01
 -17.563  0.827E-01  0.827E-01
 -17.553  0.876E-01  0.876E-01
 -17.543  0.930E-01  0.930E-01
 -17.533  0.989E-01  0.989E-01
 -17.523  0.105E+00  0.105E+00
 -17.513  0.111E+00  0.111E+00
 -17.503  0.118E+00  0.118E+00
 -17.493  0.124E+00  0.124E+00
 -17.483  0.131E+00  0.131E+00
 -17.473  0.137E+00  0.137E+00
 -17.463  0.142E+00  0.142E+00
 -17.453  0.148E+00  0.148E+00
 -17.443  0.152E+00  0.152E+00
 -17.433  0.156E+00  0.156E+00
 -17.423  0.160E+00  0.160E+00
 -17.413  0.163E+00  0.163E+00
 -17.403  0.165E+00  0.165E+00
 -17.393  0.166E+00  0.166E+00
 -17.383  0.166E+00  0.166E+00
 -17.373  0.166E+00  0.166E+00
 -17.363  0.165E+00  0.165E+00
 -17.353  0.163E+00  0.163E+00
 -17.343  0.160E+00  0.160E+00
 -17.333  0.157E+00  0.157E+00
 -17.323  0.153E+00  0.153E+00
 -17.313  0.149E+00  0.149E+00
 -17.303  0.144E+00  0.144E+00
 -17.293  0.139E+00  0.139E+00
 -17.283  0.135E+00  0.135E+00
 -17.273  0.130E+00  0.130E+00
 -17.263  0.126E+00  0.126E+00
 -17.253  0.121E+00  0.121E+00
 -17.243  0.118E+00  0.118E+00
 -17.233  0.115E+00  0.115E+00
 -17.223  0.112E+00  0.112E+00
 -17.213  0.109E+00  0.109E+00
 -17.203  0.108E+00  0.108E+00
 -17.193  0.106E+00  0.106E+00
 -17.183  0.105E+00  0.105E+00
 -17.173  0.104E+00  0.104E+00
 -17.163  0.103E+00  0.103E+00
 -17.153  0.102E+00  0.102E+00
 -17.143  0.100E+00  0.100E+00
 -17.133  0.984E-01  0.984E-01
 -17.123  0.963E-01  0.963E-01
 -17.113  0.938E-01  0.938E-01
 -17.103  0.908E-01  0.908E-01
 -17.093  0.875E-01  0.875E-01
 -17.083  0.838E-01  0.838E-01
 -17.073  0.798E-01  0.798E-01
 -17.063  0.756E-01  0.756E-01
 -17.053  0.715E-01  0.715E-01
 -17.043  0.674E-01  0.674E-01
 -17.033  0.636E-01  0.636E-01
 -17.023  0.602E-01  0.602E-01
 -17.013  0.573E-01  0.573E-01
 -17.003  0.550E-01  0.550E-01
 -16.993  0.534E-01  0.534E-01
 -16.983  0.527E-01  0.527E-01
 -16.973  0.527E-01  0.527E-01
 -16.963  0.537E-01  0.537E-01
 -16.953  0.554E-01  0.554E-01
 -16.943  0.578E-01  0.578E-01
 -16.933  0.610E-01  0.610E-01
 -16.923  0.646E-01  0.646E-01
 -16.913  0.687E-01  0.687E-01
 -16.903  0.731E-01  0.731E-01
 -16.893  0.776E-01  0.776E-01
 -16.883  0.821E-01  0.821E-01
 -16.873  0.864E-01  0.864E-01
 -16.863  0.904E-01  0.904E-01
 -16.853  0.940E-01  0.940E-01
 -16.843  0.972E-01  0.972E-01
 -16.833  0.998E-01  0.998E-01
 -16.823  0.102E+00  0.102E+00
 -16.813  0.103E+00  0.103E+00
 -16.803  0.105E+00  0.105E+00
 -16.793  0.105E+00  0.105E+00
 -16.783  0.106E+00  0.106E+00
 -16.773  0.107E+00  0.107E+00
 -16.763  0.107E+00  0.107E+00
 -16.753  0.108E+00  0.108E+00
 -16.743  0.109E+00  0.109E+00
 -16.733  0.111E+00  0.111E+00
 -16.723  0.113E+00  0.113E+00
 -16.713  0.116E+00  0.116E+00
 -16.703  0.120E+00  0.120E+00
 -16.693  0.124E+00  0.124E+00
 -16.683  0.129E+00  0.129E+00
 -16.673  0.135E+00  0.135E+00
 -16.663  0.141E+00  0.141E+00
 -16.653  0.148E+00  0.148E+00
 -16.643  0.155E+00  0.155E+00
 -16.633  0.162E+00  0.162E+00
 -16.623  0.170E+00  0.170E+00
 -16.613  0.177E+00  0.177E+00
 -16.603  0.184E+00  0.184E+00
 -16.593  0.191E+00  0.191E+00
 -16.583  0.197E+00  0.197E+00
 -16.573  0.202E+00  0.202E+00
 -16.563  0.207E+00  0.207E+00
 -16.553  0.210E+00  0.210E+00
 -16.543  0.213E+00  0.213E+00
 -16.533  0.215E+00  0.215E+00
 -16.523  0.216E+00  0.216E+00
 -16.513  0.215E+00  0.215E+00
 -16.503  0.213E+00  0.213E+00
 -16.493  0.211E+00  0.211E+00
 -16.483  0.206E+00  0.206E+00
 -16.473  0.201E+00  0.201E+00
 -16.463  0.195E+00  0.195E+00
 -16.453  0.188E+00  0.188E+00
 -16.443  0.179E+00  0.179E+00
 -16.433  0.170E+00  0.170E+00
 -16.423  0.160E+00  0.160E+00
 -16.413  0.149E+00  0.149E+00
 -16.403  0.138E+00  0.138E+00
 -16.393  0.127E+00  0.127E+00
 -16.383  0.116E+00  0.116E+00
 -16.373  0.105E+00  0.105E+00
 -16.363  0.937E-01  0.937E-01
 -16.353  0.831E-01  0.831E-01
 -16.343  0.730E-01  0.730E-01
 -16.333  0.635E-01  0.635E-01
 -16.323  0.548E-01  0.548E-01
 -16.313  0.468E-01  0.468E-01
 -16.303  0.395E-01  0.395E-01
 -16.293  0.331E-01  0.331E-01
 -16.283  0.274E-01  0.274E-01
 -16.273  0.225E-01  0.225E-01
 -16.263  0.183E-01  0.183E-01
 -16.253  0.147E-01  0.147E-01
 -16.243  0.118E-01  0.118E-01
 -16.233  0.934E-02  0.934E-02
 -16.223  0.737E-02  0.737E-02
 -16.213  0.581E-02  0.581E-02
 -16.203  0.461E-02  0.461E-02
 -16.193  0.372E-02  0.372E-02
 -16.183  0.311E-02  0.311E-02
 -16.173  0.274E-02  0.274E-02
 -16.163  0.259E-02  0.259E-02
 -16.153  0.265E-02  0.265E-02
 -16.143  0.289E-02  0.289E-02
 -16.133  0.333E-02  0.333E-02
 -16.123  0.395E-02  0.395E-02
 -16.113  0.478E-02  0.478E-02
 -16.103  0.581E-02  0.581E-02
 -16.093  0.705E-02  0.705E-02
 -16.083  0.852E-02  0.852E-02
 -16.073  0.102E-01  0.102E-01
 -16.063  0.122E-01  0.122E-01
 -16.053  0.143E-01  0.143E-01
 -16.043  0.167E-01  0.167E-01
 -16.033  0.193E-01  0.193E-01
 -16.023  0.221E-01  0.221E-01
 -16.013  0.251E-01  0.251E-01
 -16.003  0.282E-01  0.282E-01
 -15.993  0.315E-01  0.315E-01
 -15.983  0.348E-01  0.348E-01
 -15.973  0.381E-01  0.381E-01
 -15.963  0.414E-01  0.414E-01
 -15.953  0.447E-01  0.447E-01
 -15.943  0.480E-01  0.480E-01
 -15.933  0.511E-01  0.511E-01
 -15.923  0.542E-01  0.542E-01
 -15.913  0.571E-01  0.571E-01
 -15.903  0.600E-01  0.600E-01
 -15.893  0.628E-01  0.628E-01
 -15.883  0.655E-01  0.655E-01
 -15.873  0.681E-01  0.681E-01
 -15.863  0.707E-01  0.707E-01
 -15.853  0.733E-01  0.733E-01
 -15.843  0.757E-01  0.757E-01
 -15.833  0.781E-01  0.781E-01
 -15.823  0.804E-01  0.804E-01
 -15.813  0.825E-01  0.825E-01
 -15.803  0.844E-01  0.844E-01
 -15.793  0.860E-01  0.860E-01
 -15.783  0.872E-01  0.872E-01
 -15.773  0.881E-01  0.881E-01
 -15.763  0.884E-01  0.884E-01
 -15.753  0.882E-01  0.882E-01
 -15.743  0.874E-01  0.874E-01
 -15.733  0.860E-01  0.860E-01
 -15.723  0.840E-01  0.840E-01
 -15.713  0.814E-01  0.814E-01
 -15.703  0.782E-01  0.782E-01
 -15.693  0.744E-01  0.744E-01
 -15.683  0.702E-01  0.702E-01
 -15.673  0.657E-01  0.657E-01
 -15.663  0.609E-01  0.609E-01
 -15.653  0.560E-01  0.560E-01
 -15.643  0.510E-01  0.510E-01
 -15.633  0.461E-01  0.461E-01
 -15.623  0.413E-01  0.413E-01
 -15.613  0.368E-01  0.368E-01
 -15.603  0.326E-01  0.326E-01
 -15.593  0.288E-01  0.288E-01
 -15.583  0.253E-01  0.253E-01
 -15.573  0.223E-01  0.223E-01
 -15.563  0.197E-01  0.197E-01
 -15.553  0.176E-01  0.176E-01
 -15.543  0.158E-01  0.158E-01
 -15.533  0.145E-01  0.145E-01
 -15.523  0.135E-01  0.135E-01
 -15.513  0.128E-01  0.128E-01
 -15.503  0.124E-01  0.124E-01
 -15.493  0.122E-01  0.122E-01
 -15.483  0.122E-01  0.122E-01
 -15.473  0.124E-01  0.124E-01
 -15.463  0.127E-01  0.127E-01
 -15.453  0.132E-01  0.132E-01
 -15.443  0.138E-01  0.138E-01
 -15.433  0.144E-01  0.144E-01
 -15.423  0.152E-01  0.152E-01
 -15.413  0.160E-01  0.160E-01
 -15.403  0.169E-01  0.169E-01
 -15.393  0.179E-01  0.179E-01
 -15.383  0.190E-01  0.190E-01
 -15.373  0.202E-01  0.202E-01
 -15.363  0.215E-01  0.215E-01
 -15.353  0.229E-01  0.229E-01
 -15.343  0.244E-01  0.244E-01
 -15.333  0.260E-01  0.260E-01
 -15.323  0.277E-01  0.277E-01
 -15.313  0.296E-01  0.296E-01
 -15.303  0.315E-01  0.315E-01
 -15.293  0.335E-01  0.335E-01
 -15.283  0.356E-01  0.356E-01
 -15.273  0.377E-01  0.377E-01
 -15.263  0.398E-01  0.398E-01
 -15.253  0.420E-01  0.420E-01
 -15.243  0.441E-01  0.441E-01
 -15.233  0.461E-01  0.461E-01
 -15.223  0.481E-01  0.481E-01
 -15.213  0.500E-01  0.500E-01
 -15.203  0.517E-01  0.517E-01
 -15.193  0.533E-01  0.533E-01
 -15.183  0.546E-01  0.546E-01
 -15.173  0.558E-01  0.558E-01
 -15.163  0.567E-01  0.567E-01
 -15.153  0.574E-01  0.574E-01
 -15.143  0.579E-01  0.579E-01
 -15.133  0.581E-01  0.581E-01
 -15.123  0.582E-01  0.582E-01
 -15.113  0.580E-01  0.580E-01
 -15.103  0.577E-01  0.577E-01
 -15.093  0.574E-01  0.574E-01
 -15.083  0.569E-01  0.569E-01
 -15.073  0.565E-01  0.565E-01
 -15.063  0.560E-01  0.560E-01
 -15.053  0.557E-01  0.557E-01
 -15.043  0.555E-01  0.555E-01
 -15.033  0.555E-01  0.555E-01
 -15.023  0.556E-01  0.556E-01
 -15.013  0.560E-01  0.560E-01
 -15.003  0.567E-01  0.567E-01
 -14.993  0.576E-01  0.576E-01
 -14.983  0.588E-01  0.588E-01
 -14.973  0.603E-01  0.603E-01
 -14.963  0.620E-01  0.620E-01
 -14.953  0.639E-01  0.639E-01
 -14.943  0.659E-01  0.659E-01
 -14.933  0.680E-01  0.680E-01
 -14.923  0.702E-01  0.702E-01
 -14.913  0.723E-01  0.723E-01
 -14.903  0.743E-01  0.743E-01
 -14.893  0.761E-01  0.761E-01
 -14.883  0.777E-01  0.777E-01
 -14.873  0.789E-01  0.789E-01
 -14.863  0.797E-01  0.797E-01
 -14.853  0.802E-01  0.802E-01
 -14.843  0.801E-01  0.801E-01
 -14.833  0.796E-01  0.796E-01
 -14.823  0.787E-01  0.787E-01
 -14.813  0.774E-01  0.774E-01
 -14.803  0.758E-01  0.758E-01
 -14.793  0.738E-01  0.738E-01
 -14.783  0.717E-01  0.717E-01
 -14.773  0.695E-01  0.695E-01
 -14.763  0.672E-01  0.672E-01
 -14.753  0.651E-01  0.651E-01
 -14.743  0.631E-01  0.631E-01
 -14.733  0.615E-01  0.615E-01
 -14.723  0.602E-01  0.602E-01
 -14.713  0.593E-01  0.593E-01
 -14.703  0.590E-01  0.590E-01
 -14.693  0.592E-01  0.592E-01
 -14.683  0.600E-01  0.600E-01
 -14.673  0.615E-01  0.615E-01
 -14.663  0.635E-01  0.635E-01
 -14.653  0.661E-01  0.661E-01
 -14.643  0.694E-01  0.694E-01
 -14.633  0.731E-01  0.731E-01
 -14.623  0.773E-01  0.773E-01
 -14.613  0.818E-01  0.818E-01
 -14.603  0.865E-01  0.865E-01
 -14.593  0.914E-01  0.914E-01
 -14.583  0.962E-01  0.962E-01
 -14.573  0.101E+00  0.101E+00
 -14.563  0.105E+00  0.105E+00
 -14.553  0.109E+00  0.109E+00
 -14.543  0.112E+00  0.112E+00
 -14.533  0.114E+00  0.114E+00
 -14.523  0.116E+00  0.116E+00
 -14.513  0.116E+00  0.116E+00
 -14.503  0.116E+00  0.116E+00
 -14.493  0.114E+00  0.114E+00
 -14.483  0.112E+00  0.112E+00
 -14.473  0.108E+00  0.108E+00
 -14.463  0.104E+00  0.104E+00
 -14.453  0.984E-01  0.984E-01
 -14.443  0.926E-01  0.926E-01
 -14.433  0.862E-01  0.862E-01
 -14.423  0.796E-01  0.796E-01
 -14.413  0.728E-01  0.728E-01
 -14.403  0.661E-01  0.661E-01
 -14.393  0.596E-01  0.596E-01
 -14.383  0.534E-01  0.534E-01
 -14.373  0.477E-01  0.477E-01
 -14.363  0.425E-01  0.425E-01
 -14.353  0.381E-01  0.381E-01
 -14.343  0.343E-01  0.343E-01
 -14.333  0.314E-01  0.314E-01
 -14.323  0.292E-01  0.292E-01
 -14.313  0.278E-01  0.278E-01
 -14.303  0.273E-01  0.273E-01
 -14.293  0.274E-01  0.274E-01
 -14.283  0.283E-01  0.283E-01
 -14.273  0.299E-01  0.299E-01
 -14.263  0.320E-01  0.320E-01
 -14.253  0.347E-01  0.347E-01
 -14.243  0.378E-01  0.378E-01
 -14.233  0.413E-01  0.413E-01
 -14.223  0.450E-01  0.450E-01
 -14.213  0.489E-01  0.489E-01
 -14.203  0.529E-01  0.529E-01
 -14.193  0.569E-01  0.569E-01
 -14.183  0.607E-01  0.607E-01
 -14.173  0.644E-01  0.644E-01
 -14.163  0.678E-01  0.678E-01
 -14.153  0.710E-01  0.710E-01
 -14.143  0.737E-01  0.737E-01
 -14.133  0.761E-01  0.761E-01
 -14.123  0.780E-01  0.780E-01
 -14.113  0.794E-01  0.794E-01
 -14.103  0.803E-01  0.803E-01
 -14.093  0.808E-01  0.808E-01
 -14.083  0.808E-01  0.808E-01
 -14.073  0.804E-01  0.804E-01
 -14.063  0.794E-01  0.794E-01
 -14.053  0.781E-01  0.781E-01
 -14.043  0.764E-01  0.764E-01
 -14.033  0.743E-01  0.743E-01
 -14.023  0.720E-01  0.720E-01
 -14.013  0.694E-01  0.694E-01
 -14.003  0.666E-01  0.666E-01
 -13.993  0.638E-01  0.638E-01
 -13.983  0.609E-01  0.609E-01
 -13.973  0.581E-01  0.581E-01
 -13.963  0.554E-01  0.554E-01
 -13.953  0.529E-01  0.529E-01
 -13.943  0.508E-01  0.508E-01
 -13.933  0.491E-01  0.491E-01
 -13.923  0.479E-01  0.479E-01
 -13.913  0.472E-01  0.472E-01
 -13.903  0.471E-01  0.471E-01
 -13.893  0.475E-01  0.475E-01
 -13.883  0.486E-01  0.486E-01
 -13.873  0.502E-01  0.502E-01
 -13.863  0.523E-01  0.523E-01
 -13.853  0.549E-01  0.549E-01
 -13.843  0.578E-01  0.578E-01
 -13.833  0.609E-01  0.609E-01
 -13.823  0.642E-01  0.642E-01
 -13.813  0.674E-01  0.674E-01
 -13.803  0.705E-01  0.705E-01
 -13.793  0.732E-01  0.732E-01
 -13.783  0.756E-01  0.756E-01
 -13.773  0.773E-01  0.773E-01
 -13.763  0.785E-01  0.785E-01
 -13.753  0.790E-01  0.790E-01
 -13.743  0.787E-01  0.787E-01
 -13.733  0.777E-01  0.777E-01
 -13.723  0.759E-01  0.759E-01
 -13.713  0.735E-01  0.735E-01
 -13.703  0.704E-01  0.704E-01
 -13.693  0.668E-01  0.668E-01
 -13.683  0.628E-01  0.628E-01
 -13.673  0.584E-01  0.584E-01
 -13.663  0.538E-01  0.538E-01
 -13.653  0.492E-01  0.492E-01
 -13.643  0.446E-01  0.446E-01
 -13.633  0.402E-01  0.402E-01
 -13.623  0.359E-01  0.359E-01
 -13.613  0.321E-01  0.321E-01
 -13.603  0.286E-01  0.286E-01
 -13.593  0.255E-01  0.255E-01
 -13.583  0.229E-01  0.229E-01
 -13.573  0.209E-01  0.209E-01
 -13.563  0.193E-01  0.193E-01
 -13.553  0.183E-01  0.183E-01
 -13.543  0.178E-01  0.178E-01
 -13.533  0.177E-01  0.177E-01
 -13.523  0.181E-01  0.181E-01
 -13.513  0.189E-01  0.189E-01
 -13.503  0.201E-01  0.201E-01
 -13.493  0.216E-01  0.216E-01
 -13.483  0.234E-01  0.234E-01
 -13.473  0.255E-01  0.255E-01
 -13.463  0.277E-01  0.277E-01
 -13.453  0.302E-01  0.302E-01
 -13.443  0.328E-01  0.328E-01
 -13.433  0.355E-01  0.355E-01
 -13.423  0.382E-01  0.382E-01
 -13.413  0.409E-01  0.409E-01
 -13.403  0.436E-01  0.436E-01
 -13.393  0.463E-01  0.463E-01
 -13.383  0.488E-01  0.488E-01
 -13.373  0.512E-01  0.512E-01
 -13.363  0.535E-01  0.535E-01
 -13.353  0.556E-01  0.556E-01
 -13.343  0.574E-01  0.574E-01
 -13.333  0.591E-01  0.591E-01
 -13.323  0.605E-01  0.605E-01
 -13.313  0.616E-01  0.616E-01
 -13.303  0.625E-01  0.625E-01
 -13.293  0.632E-01  0.632E-01
 -13.283  0.636E-01  0.636E-01
 -13.273  0.639E-01  0.639E-01
 -13.263  0.640E-01  0.640E-01
 -13.253  0.640E-01  0.640E-01
 -13.243  0.639E-01  0.639E-01
 -13.233  0.638E-01  0.638E-01
 -13.223  0.637E-01  0.637E-01
 -13.213  0.636E-01  0.636E-01
 -13.203  0.635E-01  0.635E-01
 -13.193  0.634E-01  0.634E-01
 -13.183  0.634E-01  0.634E-01
 -13.173  0.634E-01  0.634E-01
 -13.163  0.634E-01  0.634E-01
 -13.153  0.633E-01  0.633E-01
 -13.143  0.631E-01  0.631E-01
 -13.133  0.628E-01  0.628E-01
 -13.123  0.622E-01  0.622E-01
 -13.113  0.614E-01  0.614E-01
 -13.103  0.603E-01  0.603E-01
 -13.093  0.588E-01  0.588E-01
 -13.083  0.571E-01  0.571E-01
 -13.073  0.549E-01  0.549E-01
 -13.063  0.525E-01  0.525E-01
 -13.053  0.498E-01  0.498E-01
 -13.043  0.468E-01  0.468E-01
 -13.033  0.436E-01  0.436E-01
 -13.023  0.402E-01  0.402E-01
 -13.013  0.368E-01  0.368E-01
 -13.003  0.334E-01  0.334E-01
 -12.993  0.301E-01  0.301E-01
 -12.983  0.269E-01  0.269E-01
 -12.973  0.239E-01  0.239E-01
 -12.963  0.211E-01  0.211E-01
 -12.953  0.187E-01  0.187E-01
 -12.943  0.166E-01  0.166E-01
 -12.933  0.148E-01  0.148E-01
 -12.923  0.134E-01  0.134E-01
 -12.913  0.124E-01  0.124E-01
 -12.903  0.119E-01  0.119E-01
 -12.893  0.117E-01  0.117E-01
 -12.883  0.120E-01  0.120E-01
 -12.873  0.126E-01  0.126E-01
 -12.863  0.137E-01  0.137E-01
 -12.853  0.151E-01  0.151E-01
 -12.843  0.169E-01  0.169E-01
 -12.833  0.189E-01  0.189E-01
 -12.823  0.213E-01  0.213E-01
 -12.813  0.239E-01  0.239E-01
 -12.803  0.267E-01  0.267E-01
 -12.793  0.297E-01  0.297E-01
 -12.783  0.327E-01  0.327E-01
 -12.773  0.358E-01  0.358E-01
 -12.763  0.389E-01  0.389E-01
 -12.753  0.419E-01  0.419E-01
 -12.743  0.448E-01  0.448E-01
 -12.733  0.476E-01  0.476E-01
 -12.723  0.501E-01  0.501E-01
 -12.713  0.524E-01  0.524E-01
 -12.703  0.545E-01  0.545E-01
 -12.693  0.564E-01  0.564E-01
 -12.683  0.580E-01  0.580E-01
 -12.673  0.593E-01  0.593E-01
 -12.663  0.605E-01  0.605E-01
 -12.653  0.613E-01  0.613E-01
 -12.643  0.620E-01  0.620E-01
 -12.633  0.625E-01  0.625E-01
 -12.623  0.627E-01  0.627E-01
 -12.613  0.627E-01  0.627E-01
 -12.603  0.625E-01  0.625E-01
 -12.593  0.621E-01  0.621E-01
 -12.583  0.615E-01  0.615E-01
 -12.573  0.606E-01  0.606E-01
 -12.563  0.595E-01  0.595E-01
 -12.553  0.581E-01  0.581E-01
 -12.543  0.564E-01  0.564E-01
 -12.533  0.545E-01  0.545E-01
 -12.523  0.523E-01  0.523E-01
 -12.513  0.499E-01  0.499E-01
 -12.503  0.473E-01  0.473E-01
 -12.493  0.446E-01  0.446E-01
 -12.483  0.417E-01  0.417E-01
 -12.473  0.388E-01  0.388E-01
 -12.463  0.359E-01  0.359E-01
 -12.453  0.330E-01  0.330E-01
 -12.443  0.302E-01  0.302E-01
 -12.433  0.275E-01  0.275E-01
 -12.423  0.251E-01  0.251E-01
 -12.413  0.228E-01  0.228E-01
 -12.403  0.207E-01  0.207E-01
 -12.393  0.190E-01  0.190E-01
 -12.383  0.174E-01  0.174E-01
 -12.373  0.161E-01  0.161E-01
 -12.363  0.151E-01  0.151E-01
 -12.353  0.144E-01  0.144E-01
 -12.343  0.138E-01  0.138E-01
 -12.333  0.135E-01  0.135E-01
 -12.323  0.135E-01  0.135E-01
 -12.313  0.136E-01  0.136E-01
 -12.303  0.140E-01  0.140E-01
 -12.293  0.145E-01  0.145E-01
 -12.283  0.153E-01  0.153E-01
 -12.273  0.162E-01  0.162E-01
 -12.263  0.174E-01  0.174E-01
 -12.253  0.187E-01  0.187E-01
 -12.243  0.202E-01  0.202E-01
 -12.233  0.218E-01  0.218E-01
 -12.223  0.237E-01  0.237E-01
 -12.213  0.257E-01  0.257E-01
 -12.203  0.278E-01  0.278E-01
 -12.193  0.301E-01  0.301E-01
 -12.183  0.324E-01  0.324E-01
 -12.173  0.349E-01  0.349E-01
 -12.163  0.374E-01  0.374E-01
 -12.153  0.400E-01  0.400E-01
 -12.143  0.426E-01  0.426E-01
 -12.133  0.453E-01  0.453E-01
 -12.123  0.479E-01  0.479E-01
 -12.113  0.504E-01  0.504E-01
 -12.103  0.530E-01  0.530E-01
 -12.093  0.554E-01  0.554E-01
 -12.083  0.577E-01  0.577E-01
 -12.073  0.598E-01  0.598E-01
 -12.063  0.618E-01  0.618E-01
 -12.053  0.635E-01  0.635E-01
 -12.043  0.650E-01  0.650E-01
 -12.033  0.662E-01  0.662E-01
 -12.023  0.670E-01  0.670E-01
 -12.013  0.675E-01  0.675E-01
 -12.003  0.676E-01  0.676E-01
 -11.993  0.673E-01  0.673E-01
 -11.983  0.665E-01  0.665E-01
 -11.973  0.653E-01  0.653E-01
 -11.963  0.637E-01  0.637E-01
 -11.953  0.616E-01  0.616E-01
 -11.943  0.592E-01  0.592E-01
 -11.933  0.564E-01  0.564E-01
 -11.923  0.533E-01  0.533E-01
 -11.913  0.499E-01  0.499E-01
 -11.903  0.464E-01  0.464E-01
 -11.893  0.427E-01  0.427E-01
 -11.883  0.390E-01  0.390E-01
 -11.873  0.353E-01  0.353E-01
 -11.863  0.317E-01  0.317E-01
 -11.853  0.282E-01  0.282E-01
 -11.843  0.248E-01  0.248E-01
 -11.833  0.216E-01  0.216E-01
 -11.823  0.187E-01  0.187E-01
 -11.813  0.161E-01  0.161E-01
 -11.803  0.137E-01  0.137E-01
 -11.793  0.115E-01  0.115E-01
 -11.783  0.970E-02  0.970E-02
 -11.773  0.812E-02  0.812E-02
 -11.763  0.679E-02  0.679E-02
 -11.753  0.571E-02  0.571E-02
 -11.743  0.485E-02  0.485E-02
 -11.733  0.420E-02  0.420E-02
 -11.723  0.375E-02  0.375E-02
 -11.713  0.347E-02  0.347E-02
 -11.703  0.335E-02  0.335E-02
 -11.693  0.338E-02  0.338E-02
 -11.683  0.355E-02  0.355E-02
 -11.673  0.386E-02  0.386E-02
 -11.663  0.428E-02  0.428E-02
 -11.653  0.483E-02  0.483E-02
 -11.643  0.550E-02  0.550E-02
 -11.633  0.628E-02  0.628E-02
 -11.623  0.719E-02  0.719E-02
 -11.613  0.822E-02  0.822E-02
 -11.603  0.938E-02  0.938E-02
 -11.593  0.107E-01  0.107E-01
 -11.583  0.121E-01  0.121E-01
 -11.573  0.137E-01  0.137E-01
 -11.563  0.155E-01  0.155E-01
 -11.553  0.175E-01  0.175E-01
 -11.543  0.197E-01  0.197E-01
 -11.533  0.222E-01  0.222E-01
 -11.523  0.248E-01  0.248E-01
 -11.513  0.278E-01  0.278E-01
 -11.503  0.309E-01  0.309E-01
 -11.493  0.344E-01  0.344E-01
 -11.483  0.380E-01  0.380E-01
 -11.473  0.419E-01  0.419E-01
 -11.463  0.460E-01  0.460E-01
 -11.453  0.502E-01  0.502E-01
 -11.443  0.546E-01  0.546E-01
 -11.433  0.589E-01  0.589E-01
 -11.423  0.632E-01  0.632E-01
 -11.413  0.673E-01  0.673E-01
 -11.403  0.712E-01  0.712E-01
 -11.393  0.748E-01  0.748E-01
 -11.383  0.779E-01  0.779E-01
 -11.373  0.805E-01  0.805E-01
 -11.363  0.825E-01  0.825E-01
 -11.353  0.838E-01  0.838E-01
 -11.343  0.844E-01  0.844E-01
 -11.333  0.842E-01  0.842E-01
 -11.323  0.834E-01  0.834E-01
 -11.313  0.818E-01  0.818E-01
 -11.303  0.795E-01  0.795E-01
 -11.293  0.766E-01  0.766E-01
 -11.283  0.732E-01  0.732E-01
 -11.273  0.693E-01  0.693E-01
 -11.263  0.651E-01  0.651E-01
 -11.253  0.607E-01  0.607E-01
 -11.243  0.562E-01  0.562E-01
 -11.233  0.517E-01  0.517E-01
 -11.223  0.473E-01  0.473E-01
 -11.213  0.430E-01  0.430E-01
 -11.203  0.390E-01  0.390E-01
 -11.193  0.353E-01  0.353E-01
 -11.183  0.319E-01  0.319E-01
 -11.173  0.289E-01  0.289E-01
 -11.163  0.261E-01  0.261E-01
 -11.153  0.237E-01  0.237E-01
 -11.143  0.217E-01  0.217E-01
 -11.133  0.198E-01  0.198E-01
 -11.123  0.183E-01  0.183E-01
 -11.113  0.169E-01  0.169E-01
 -11.103  0.157E-01  0.157E-01
 -11.093  0.146E-01  0.146E-01
 -11.083  0.136E-01  0.136E-01
 -11.073  0.126E-01  0.126E-01
 -11.063  0.118E-01  0.118E-01
 -11.053  0.109E-01  0.109E-01
 -11.043  0.101E-01  0.101E-01
 -11.033  0.923E-02  0.923E-02
 -11.023  0.841E-02  0.841E-02
 -11.013  0.762E-02  0.762E-02
 -11.003  0.685E-02  0.685E-02
 -10.993  0.611E-02  0.611E-02
 -10.983  0.541E-02  0.541E-02
 -10.973  0.476E-02  0.476E-02
 -10.963  0.416E-02  0.416E-02
 -10.953  0.363E-02  0.363E-02
 -10.943  0.317E-02  0.317E-02
 -10.933  0.279E-02  0.279E-02
 -10.923  0.249E-02  0.249E-02
 -10.913  0.229E-02  0.229E-02
 -10.903  0.219E-02  0.219E-02
 -10.893  0.220E-02  0.220E-02
 -10.883  0.234E-02  0.234E-02
 -10.873  0.262E-02  0.262E-02
 -10.863  0.305E-02  0.305E-02
 -10.853  0.365E-02  0.365E-02
 -10.843  0.444E-02  0.444E-02
 -10.833  0.543E-02  0.543E-02
 -10.823  0.666E-02  0.666E-02
 -10.813  0.814E-02  0.814E-02
 -10.803  0.989E-02  0.989E-02
 -10.793  0.119E-01  0.119E-01
 -10.783  0.142E-01  0.142E-01
 -10.773  0.168E-01  0.168E-01
 -10.763  0.197E-01  0.197E-01
 -10.753  0.229E-01  0.229E-01
 -10.743  0.262E-01  0.262E-01
 -10.733  0.298E-01  0.298E-01
 -10.723  0.335E-01  0.335E-01
 -10.713  0.373E-01  0.373E-01
 -10.703  0.411E-01  0.411E-01
 -10.693  0.448E-01  0.448E-01
 -10.683  0.484E-01  0.484E-01
 -10.673  0.518E-01  0.518E-01
 -10.663  0.548E-01  0.548E-01
 -10.653  0.575E-01  0.575E-01
 -10.643  0.597E-01  0.597E-01
 -10.633  0.615E-01  0.615E-01
 -10.623  0.627E-01  0.627E-01
 -10.613  0.633E-01  0.633E-01
 -10.603  0.634E-01  0.634E-01
 -10.593  0.630E-01  0.630E-01
 -10.583  0.621E-01  0.621E-01
 -10.573  0.607E-01  0.607E-01
 -10.563  0.590E-01  0.590E-01
 -10.553  0.569E-01  0.569E-01
 -10.543  0.546E-01  0.546E-01
 -10.533  0.521E-01  0.521E-01
 -10.523  0.495E-01  0.495E-01
 -10.513  0.469E-01  0.469E-01
 -10.503  0.444E-01  0.444E-01
 -10.493  0.419E-01  0.419E-01
 -10.483  0.396E-01  0.396E-01
 -10.473  0.374E-01  0.374E-01
 -10.463  0.355E-01  0.355E-01
 -10.453  0.337E-01  0.337E-01
 -10.443  0.322E-01  0.322E-01
 -10.433  0.308E-01  0.308E-01
 -10.423  0.297E-01  0.297E-01
 -10.413  0.287E-01  0.287E-01
 -10.403  0.280E-01  0.280E-01
 -10.393  0.273E-01  0.273E-01
 -10.383  0.268E-01  0.268E-01
 -10.373  0.264E-01  0.264E-01
 -10.363  0.260E-01  0.260E-01
 -10.353  0.258E-01  0.258E-01
 -10.343  0.255E-01  0.255E-01
 -10.333  0.253E-01  0.253E-01
 -10.323  0.251E-01  0.251E-01
 -10.313  0.248E-01  0.248E-01
 -10.303  0.245E-01  0.245E-01
 -10.293  0.242E-01  0.242E-01
 -10.283  0.238E-01  0.238E-01
 -10.273  0.234E-01  0.234E-01
 -10.263  0.229E-01  0.229E-01
 -10.253  0.224E-01  0.224E-01
 -10.243  0.219E-01  0.219E-01
 -10.233  0.213E-01  0.213E-01
 -10.223  0.207E-01  0.207E-01
 -10.213  0.201E-01  0.201E-01
 -10.203  0.195E-01  0.195E-01
 -10.193  0.190E-01  0.190E-01
 -10.183  0.185E-01  0.185E-01
 -10.173  0.181E-01  0.181E-01
 -10.163  0.179E-01  0.179E-01
 -10.153  0.177E-01  0.177E-01
 -10.143  0.176E-01  0.176E-01
 -10.133  0.177E-01  0.177E-01
 -10.123  0.179E-01  0.179E-01
 -10.113  0.182E-01  0.182E-01
 -10.103  0.187E-01  0.187E-01
 -10.093  0.192E-01  0.192E-01
 -10.083  0.200E-01  0.200E-01
 -10.073  0.208E-01  0.208E-01
 -10.063  0.217E-01  0.217E-01
 -10.053  0.227E-01  0.227E-01
 -10.043  0.239E-01  0.239E-01
 -10.033  0.250E-01  0.250E-01
 -10.023  0.262E-01  0.262E-01
 -10.013  0.274E-01  0.274E-01
 -10.003  0.286E-01  0.286E-01
  -9.993  0.297E-01  0.297E-01
  -9.983  0.308E-01  0.308E-01
  -9.973  0.317E-01  0.317E-01
  -9.963  0.325E-01  0.325E-01
  -9.953  0.331E-01  0.331E-01
  -9.943  0.335E-01  0.335E-01
  -9.933  0.336E-01  0.336E-01
  -9.923  0.335E-01  0.335E-01
  -9.913  0.332E-01  0.332E-01
  -9.903  0.326E-01  0.326E-01
  -9.893  0.317E-01  0.317E-01
  -9.883  0.307E-01  0.307E-01
  -9.873  0.294E-01  0.294E-01
  -9.863  0.281E-01  0.281E-01
  -9.853  0.266E-01  0.266E-01
  -9.843  0.250E-01  0.250E-01
  -9.833  0.234E-01  0.234E-01
  -9.823  0.219E-01  0.219E-01
  -9.813  0.204E-01  0.204E-01
  -9.803  0.190E-01  0.190E-01
  -9.793  0.177E-01  0.177E-01
  -9.783  0.166E-01  0.166E-01
  -9.773  0.157E-01  0.157E-01
  -9.763  0.150E-01  0.150E-01
  -9.753  0.145E-01  0.145E-01
  -9.743  0.141E-01  0.141E-01
  -9.733  0.139E-01  0.139E-01
  -9.723  0.139E-01  0.139E-01
  -9.713  0.141E-01  0.141E-01
  -9.703  0.144E-01  0.144E-01
  -9.693  0.147E-01  0.147E-01
  -9.683  0.152E-01  0.152E-01
  -9.673  0.157E-01  0.157E-01
  -9.663  0.162E-01  0.162E-01
  -9.653  0.168E-01  0.168E-01
  -9.643  0.174E-01  0.174E-01
  -9.633  0.179E-01  0.179E-01
  -9.623  0.184E-01  0.184E-01
  -9.613  0.189E-01  0.189E-01
  -9.603  0.194E-01  0.194E-01
  -9.593  0.199E-01  0.199E-01
  -9.583  0.203E-01  0.203E-01
  -9.573  0.207E-01  0.207E-01
  -9.563  0.212E-01  0.212E-01
  -9.553  0.217E-01  0.217E-01
  -9.543  0.222E-01  0.222E-01
  -9.533  0.228E-01  0.228E-01
  -9.523  0.235E-01  0.235E-01
  -9.513  0.243E-01  0.243E-01
  -9.503  0.252E-01  0.252E-01
  -9.493  0.261E-01  0.261E-01
  -9.483  0.272E-01  0.272E-01
  -9.473  0.283E-01  0.283E-01
  -9.463  0.295E-01  0.295E-01
  -9.453  0.307E-01  0.307E-01
  -9.443  0.320E-01  0.320E-01
  -9.433  0.332E-01  0.332E-01
  -9.423  0.343E-01  0.343E-01
  -9.413  0.354E-01  0.354E-01
  -9.403  0.363E-01  0.363E-01
  -9.393  0.370E-01  0.370E-01
  -9.383  0.376E-01  0.376E-01
  -9.373  0.379E-01  0.379E-01
  -9.363  0.381E-01  0.381E-01
  -9.353  0.380E-01  0.380E-01
  -9.343  0.377E-01  0.377E-01
  -9.333  0.372E-01  0.372E-01
  -9.323  0.366E-01  0.366E-01
  -9.313  0.357E-01  0.357E-01
  -9.303  0.348E-01  0.348E-01
  -9.293  0.337E-01  0.337E-01
  -9.283  0.326E-01  0.326E-01
  -9.273  0.314E-01  0.314E-01
  -9.263  0.302E-01  0.302E-01
  -9.253  0.290E-01  0.290E-01
  -9.243  0.278E-01  0.278E-01
  -9.233  0.267E-01  0.267E-01
  -9.223  0.256E-01  0.256E-01
  -9.213  0.246E-01  0.246E-01
  -9.203  0.236E-01  0.236E-01
  -9.193  0.227E-01  0.227E-01
  -9.183  0.218E-01  0.218E-01
  -9.173  0.210E-01  0.210E-01
  -9.163  0.203E-01  0.203E-01
  -9.153  0.196E-01  0.196E-01
  -9.143  0.189E-01  0.189E-01
  -9.133  0.182E-01  0.182E-01
  -9.123  0.176E-01  0.176E-01
  -9.113  0.170E-01  0.170E-01
  -9.103  0.165E-01  0.165E-01
  -9.093  0.159E-01  0.159E-01
  -9.083  0.154E-01  0.154E-01
  -9.073  0.148E-01  0.148E-01
  -9.063  0.143E-01  0.143E-01
  -9.053  0.138E-01  0.138E-01
  -9.043  0.132E-01  0.132E-01
  -9.033  0.127E-01  0.127E-01
  -9.023  0.122E-01  0.122E-01
  -9.013  0.117E-01  0.117E-01
  -9.003  0.112E-01  0.112E-01
  -8.993  0.107E-01  0.107E-01
  -8.983  0.102E-01  0.102E-01
  -8.973  0.981E-02  0.981E-02
  -8.963  0.940E-02  0.940E-02
  -8.953  0.902E-02  0.902E-02
  -8.943  0.868E-02  0.868E-02
  -8.933  0.838E-02  0.838E-02
  -8.923  0.810E-02  0.810E-02
  -8.913  0.786E-02  0.786E-02
  -8.903  0.766E-02  0.766E-02
  -8.893  0.748E-02  0.748E-02
  -8.883  0.733E-02  0.733E-02
  -8.873  0.720E-02  0.720E-02
  -8.863  0.710E-02  0.710E-02
  -8.853  0.703E-02  0.703E-02
  -8.843  0.698E-02  0.698E-02
  -8.833  0.696E-02  0.696E-02
  -8.823  0.698E-02  0.698E-02
  -8.813  0.705E-02  0.705E-02
  -8.803  0.718E-02  0.718E-02
  -8.793  0.738E-02  0.738E-02
  -8.783  0.766E-02  0.766E-02
  -8.773  0.804E-02  0.804E-02
  -8.763  0.854E-02  0.854E-02
  -8.753  0.916E-02  0.916E-02
  -8.743  0.991E-02  0.991E-02
  -8.733  0.108E-01  0.108E-01
  -8.723  0.119E-01  0.119E-01
  -8.713  0.130E-01  0.130E-01
  -8.703  0.144E-01  0.144E-01
  -8.693  0.158E-01  0.158E-01
  -8.683  0.173E-01  0.173E-01
  -8.673  0.190E-01  0.190E-01
  -8.663  0.206E-01  0.206E-01
  -8.653  0.222E-01  0.222E-01
  -8.643  0.238E-01  0.238E-01
  -8.633  0.253E-01  0.253E-01
  -8.623  0.267E-01  0.267E-01
  -8.613  0.278E-01  0.278E-01
  -8.603  0.288E-01  0.288E-01
  -8.593  0.295E-01  0.295E-01
  -8.583  0.299E-01  0.299E-01
  -8.573  0.301E-01  0.301E-01
  -8.563  0.299E-01  0.299E-01
  -8.553  0.295E-01  0.295E-01
  -8.543  0.287E-01  0.287E-01
  -8.533  0.277E-01  0.277E-01
  -8.523  0.265E-01  0.265E-01
  -8.513  0.251E-01  0.251E-01
  -8.503  0.236E-01  0.236E-01
  -8.493  0.219E-01  0.219E-01
  -8.483  0.202E-01  0.202E-01
  -8.473  0.186E-01  0.186E-01
  -8.463  0.169E-01  0.169E-01
  -8.453  0.154E-01  0.154E-01
  -8.443  0.140E-01  0.140E-01
  -8.433  0.127E-01  0.127E-01
  -8.423  0.116E-01  0.116E-01
  -8.413  0.107E-01  0.107E-01
  -8.403  0.100E-01  0.100E-01
  -8.393  0.954E-02  0.954E-02
  -8.383  0.922E-02  0.922E-02
  -8.373  0.909E-02  0.909E-02
  -8.363  0.911E-02  0.911E-02
  -8.353  0.927E-02  0.927E-02
  -8.343  0.954E-02  0.954E-02
  -8.333  0.988E-02  0.988E-02
  -8.323  0.103E-01  0.103E-01
  -8.313  0.107E-01  0.107E-01
  -8.303  0.111E-01  0.111E-01
  -8.293  0.115E-01  0.115E-01
  -8.283  0.118E-01  0.118E-01
  -8.273  0.120E-01  0.120E-01
  -8.263  0.122E-01  0.122E-01
  -8.253  0.122E-01  0.122E-01
  -8.243  0.121E-01  0.121E-01
  -8.233  0.119E-01  0.119E-01
  -8.223  0.117E-01  0.117E-01
  -8.213  0.113E-01  0.113E-01
  -8.203  0.108E-01  0.108E-01
  -8.193  0.102E-01  0.102E-01
  -8.183  0.966E-02  0.966E-02
  -8.173  0.904E-02  0.904E-02
  -8.163  0.842E-02  0.842E-02
  -8.153  0.781E-02  0.781E-02
  -8.143  0.724E-02  0.724E-02
  -8.133  0.673E-02  0.673E-02
  -8.123  0.629E-02  0.629E-02
  -8.113  0.593E-02  0.593E-02
  -8.103  0.567E-02  0.567E-02
  -8.093  0.551E-02  0.551E-02
  -8.083  0.546E-02  0.546E-02
  -8.073  0.552E-02  0.552E-02
  -8.063  0.569E-02  0.569E-02
  -8.053  0.596E-02  0.596E-02
  -8.043  0.632E-02  0.632E-02
  -8.033  0.676E-02  0.676E-02
  -8.023  0.728E-02  0.728E-02
  -8.013  0.785E-02  0.785E-02
  -8.003  0.847E-02  0.847E-02
  -7.993  0.911E-02  0.911E-02
  -7.983  0.976E-02  0.976E-02
  -7.973  0.104E-01  0.104E-01
  -7.963  0.110E-01  0.110E-01
  -7.953  0.116E-01  0.116E-01
  -7.943  0.121E-01  0.121E-01
  -7.933  0.126E-01  0.126E-01
  -7.923  0.129E-01  0.129E-01
  -7.913  0.132E-01  0.132E-01
  -7.903  0.134E-01  0.134E-01
  -7.893  0.134E-01  0.134E-01
  -7.883  0.134E-01  0.134E-01
  -7.873  0.132E-01  0.132E-01
  -7.863  0.130E-01  0.130E-01
  -7.853  0.127E-01  0.127E-01
  -7.843  0.122E-01  0.122E-01
  -7.833  0.118E-01  0.118E-01
  -7.823  0.112E-01  0.112E-01
  -7.813  0.106E-01  0.106E-01
  -7.803  0.997E-02  0.997E-02
  -7.793  0.931E-02  0.931E-02
  -7.783  0.864E-02  0.864E-02
  -7.773  0.797E-02  0.797E-02
  -7.763  0.731E-02  0.731E-02
  -7.753  0.666E-02  0.666E-02
  -7.743  0.604E-02  0.604E-02
  -7.733  0.545E-02  0.545E-02
  -7.723  0.489E-02  0.489E-02
  -7.713  0.437E-02  0.437E-02
  -7.703  0.389E-02  0.389E-02
  -7.693  0.345E-02  0.345E-02
  -7.683  0.305E-02  0.305E-02
  -7.673  0.270E-02  0.270E-02
  -7.663  0.240E-02  0.240E-02
  -7.653  0.214E-02  0.214E-02
  -7.643  0.193E-02  0.193E-02
  -7.633  0.176E-02  0.176E-02
  -7.623  0.166E-02  0.166E-02
  -7.613  0.160E-02  0.160E-02
  -7.603  0.161E-02  0.161E-02
  -7.593  0.168E-02  0.168E-02
  -7.583  0.181E-02  0.181E-02
  -7.573  0.201E-02  0.201E-02
  -7.563  0.229E-02  0.229E-02
  -7.553  0.264E-02  0.264E-02
  -7.543  0.308E-02  0.308E-02
  -7.533  0.359E-02  0.359E-02
  -7.523  0.418E-02  0.418E-02
  -7.513  0.484E-02  0.484E-02
  -7.503  0.558E-02  0.558E-02
  -7.493  0.637E-02  0.637E-02
  -7.483  0.722E-02  0.722E-02
  -7.473  0.810E-02  0.810E-02
  -7.463  0.900E-02  0.900E-02
  -7.453  0.991E-02  0.991E-02
  -7.443  0.108E-01  0.108E-01
  -7.433  0.116E-01  0.116E-01
  -7.423  0.124E-01  0.124E-01
  -7.413  0.131E-01  0.131E-01
  -7.403  0.137E-01  0.137E-01
  -7.393  0.142E-01  0.142E-01
  -7.383  0.146E-01  0.146E-01
  -7.373  0.149E-01  0.149E-01
  -7.363  0.150E-01  0.150E-01
  -7.353  0.149E-01  0.149E-01
  -7.343  0.148E-01  0.148E-01
  -7.333  0.145E-01  0.145E-01
  -7.323  0.141E-01  0.141E-01
  -7.313  0.136E-01  0.136E-01
  -7.303  0.130E-01  0.130E-01
  -7.293  0.123E-01  0.123E-01
  -7.283  0.117E-01  0.117E-01
  -7.273  0.109E-01  0.109E-01
  -7.263  0.102E-01  0.102E-01
  -7.253  0.946E-02  0.946E-02
  -7.243  0.874E-02  0.874E-02
  -7.233  0.804E-02  0.804E-02
  -7.223  0.737E-02  0.737E-02
  -7.213  0.673E-02  0.673E-02
  -7.203  0.614E-02  0.614E-02
  -7.193  0.558E-02  0.558E-02
  -7.183  0.506E-02  0.506E-02
  -7.173  0.458E-02  0.458E-02
  -7.163  0.413E-02  0.413E-02
  -7.153  0.372E-02  0.372E-02
  -7.143  0.334E-02  0.334E-02
  -7.133  0.299E-02  0.299E-02
  -7.123  0.266E-02  0.266E-02
  -7.113  0.236E-02  0.236E-02
  -7.103  0.209E-02  0.209E-02
  -7.093  0.183E-02  0.183E-02
  -7.083  0.160E-02  0.160E-02
  -7.073  0.139E-02  0.139E-02
  -7.063  0.121E-02  0.121E-02
  -7.053  0.104E-02  0.104E-02
  -7.043  0.890E-03  0.890E-03
  -7.033  0.762E-03  0.762E-03
  -7.023  0.653E-03  0.653E-03
  -7.013  0.564E-03  0.564E-03
  -7.003  0.494E-03  0.494E-03
  -6.993  0.443E-03  0.443E-03
  -6.983  0.411E-03  0.411E-03
  -6.973  0.399E-03  0.399E-03
  -6.963  0.408E-03  0.408E-03
  -6.953  0.437E-03  0.437E-03
  -6.943  0.488E-03  0.488E-03
  -6.933  0.562E-03  0.562E-03
  -6.923  0.659E-03  0.659E-03
  -6.913  0.780E-03  0.780E-03
  -6.903  0.927E-03  0.927E-03
  -6.893  0.110E-02  0.110E-02
  -6.883  0.130E-02  0.130E-02
  -6.873  0.152E-02  0.152E-02
  -6.863  0.176E-02  0.176E-02
  -6.853  0.203E-02  0.203E-02
  -6.843  0.231E-02  0.231E-02
  -6.833  0.260E-02  0.260E-02
  -6.823  0.291E-02  0.291E-02
  -6.813  0.321E-02  0.321E-02
  -6.803  0.352E-02  0.352E-02
  -6.793  0.381E-02  0.381E-02
  -6.783  0.409E-02  0.409E-02
  -6.773  0.434E-02  0.434E-02
  -6.763  0.457E-02  0.457E-02
  -6.753  0.476E-02  0.476E-02
  -6.743  0.492E-02  0.492E-02
  -6.733  0.503E-02  0.503E-02
  -6.723  0.511E-02  0.511E-02
  -6.713  0.515E-02  0.515E-02
  -6.703  0.514E-02  0.514E-02
  -6.693  0.510E-02  0.510E-02
  -6.683  0.503E-02  0.503E-02
  -6.673  0.494E-02  0.494E-02
  -6.663  0.482E-02  0.482E-02
  -6.653  0.470E-02  0.470E-02
  -6.643  0.456E-02  0.456E-02
  -6.633  0.443E-02  0.443E-02
  -6.623  0.430E-02  0.430E-02
  -6.613  0.419E-02  0.419E-02
  -6.603  0.409E-02  0.409E-02
  -6.593  0.401E-02  0.401E-02
  -6.583  0.395E-02  0.395E-02
  -6.573  0.391E-02  0.391E-02
  -6.563  0.390E-02  0.390E-02
  -6.553  0.390E-02  0.390E-02
  -6.543  0.391E-02  0.391E-02
  -6.533  0.394E-02  0.394E-02
  -6.523  0.397E-02  0.397E-02
  -6.513  0.400E-02  0.400E-02
  -6.503  0.403E-02  0.403E-02
  -6.493  0.405E-02  0.405E-02
  -6.483  0.406E-02  0.406E-02
  -6.473  0.404E-02  0.404E-02
  -6.463  0.401E-02  0.401E-02
  -6.453  0.395E-02  0.395E-02
  -6.443  0.386E-02  0.386E-02
  -6.433  0.375E-02  0.375E-02
  -6.423  0.361E-02  0.361E-02
  -6.413  0.344E-02  0.344E-02
  -6.403  0.326E-02  0.326E-02
  -6.393  0.305E-02  0.305E-02
  -6.383  0.283E-02  0.283E-02
  -6.373  0.261E-02  0.261E-02
  -6.363  0.238E-02  0.238E-02
  -6.353  0.214E-02  0.214E-02
  -6.343  0.191E-02  0.191E-02
  -6.333  0.169E-02  0.169E-02
  -6.323  0.148E-02  0.148E-02
  -6.313  0.129E-02  0.129E-02
  -6.303  0.111E-02  0.111E-02
  -6.293  0.944E-03  0.944E-03
  -6.283  0.799E-03  0.799E-03
  -6.273  0.673E-03  0.673E-03
  -6.263  0.565E-03  0.565E-03
  -6.253  0.474E-03  0.474E-03
  -6.243  0.400E-03  0.400E-03
  -6.233  0.341E-03  0.341E-03
  -6.223  0.296E-03  0.296E-03
  -6.213  0.263E-03  0.263E-03
  -6.203  0.243E-03  0.243E-03
  -6.193  0.232E-03  0.232E-03
  -6.183  0.231E-03  0.231E-03
  -6.173  0.237E-03  0.237E-03
  -6.163  0.251E-03  0.251E-03
  -6.153  0.272E-03  0.272E-03
  -6.143  0.300E-03  0.300E-03
  -6.133  0.332E-03  0.332E-03
  -6.123  0.371E-03  0.371E-03
  -6.113  0.415E-03  0.415E-03
  -6.103  0.464E-03  0.464E-03
  -6.093  0.517E-03  0.517E-03
  -6.083  0.576E-03  0.576E-03
  -6.073  0.638E-03  0.638E-03
  -6.063  0.704E-03  0.704E-03
  -6.053  0.773E-03  0.773E-03
  -6.043  0.844E-03  0.844E-03
  -6.033  0.916E-03  0.916E-03
  -6.023  0.988E-03  0.988E-03
  -6.013  0.106E-02  0.106E-02
  -6.003  0.112E-02  0.112E-02
  -5.993  0.119E-02  0.119E-02
  -5.983  0.124E-02  0.124E-02
  -5.973  0.129E-02  0.129E-02
  -5.963  0.133E-02  0.133E-02
  -5.953  0.135E-02  0.135E-02
  -5.943  0.137E-02  0.137E-02
  -5.933  0.137E-02  0.137E-02
  -5.923  0.136E-02  0.136E-02
  -5.913  0.133E-02  0.133E-02
  -5.903  0.129E-02  0.129E-02
  -5.893  0.125E-02  0.125E-02
  -5.883  0.119E-02  0.119E-02
  -5.873  0.112E-02  0.112E-02
  -5.863  0.104E-02  0.104E-02
  -5.853  0.965E-03  0.965E-03
  -5.843  0.882E-03  0.882E-03
  -5.833  0.798E-03  0.798E-03
  -5.823  0.714E-03  0.714E-03
  -5.813  0.633E-03  0.633E-03
  -5.803  0.554E-03  0.554E-03
  -5.793  0.481E-03  0.481E-03
  -5.783  0.412E-03  0.412E-03
  -5.773  0.350E-03  0.350E-03
  -5.763  0.294E-03  0.294E-03
  -5.753  0.244E-03  0.244E-03
  -5.743  0.201E-03  0.201E-03
  -5.733  0.163E-03  0.163E-03
  -5.723  0.131E-03  0.131E-03
  -5.713  0.105E-03  0.105E-03
  -5.703  0.823E-04  0.823E-04
  -5.693  0.641E-04  0.641E-04
  -5.683  0.494E-04  0.494E-04
  -5.673  0.377E-04  0.377E-04
  -5.663  0.284E-04  0.284E-04
  -5.653  0.212E-04  0.212E-04
  -5.643  0.156E-04  0.156E-04
  -5.633  0.114E-04  0.114E-04
  -5.623  0.824E-05  0.824E-05
  -5.613  0.589E-05  0.589E-05
  -5.603  0.416E-05  0.416E-05
  -5.593  0.291E-05  0.291E-05
  -5.583  0.201E-05  0.201E-05
  -5.573  0.138E-05  0.138E-05
  -5.563  0.933E-06  0.933E-06
  -5.553  0.625E-06  0.625E-06
  -5.543  0.414E-06  0.414E-06
  -5.533  0.271E-06  0.271E-06
  -5.523  0.176E-06  0.176E-06
  -5.513  0.113E-06  0.113E-06
  -5.503  0.716E-07  0.716E-07
  -5.493  0.449E-07  0.449E-07
  -5.483  0.279E-07  0.279E-07
  -5.473  0.171E-07  0.171E-07
  -5.463  0.104E-07  0.104E-07
  -5.453  0.626E-08  0.626E-08
  -5.443  0.372E-08  0.372E-08
  -5.433  0.219E-08  0.219E-08
  -5.423  0.127E-08  0.127E-08
  -5.413  0.733E-09  0.733E-09
  -5.403  0.418E-09  0.418E-09
  -5.393  0.235E-09  0.235E-09
  -5.383  0.131E-09  0.131E-09
  -5.373  0.723E-10  0.723E-10
  -5.363  0.394E-10  0.394E-10
  -5.353  0.213E-10  0.213E-10
  -5.343  0.114E-10  0.114E-10
  -5.333  0.600E-11  0.600E-11
  -5.323  0.314E-11  0.314E-11
  -5.313  0.163E-11  0.163E-11
  -5.303  0.835E-12  0.835E-12
  -5.293  0.427E-12  0.427E-12
  -5.283  0.220E-12  0.220E-12
  -5.273  0.116E-12  0.116E-12
  -5.263  0.644E-13  0.644E-13
  -5.253  0.401E-13  0.401E-13
  -5.243  0.292E-13  0.292E-13
  -5.233  0.195E-13  0.195E-13
  -5.223  0.216E-13  0.216E-13
  -5.213  0.237E-13  0.237E-13
  -5.203  0.258E-13  0.258E-13
  -5.193  0.278E-13  0.278E-13
  -5.183  0.298E-13  0.298E-13
  -5.173  0.316E-13  0.316E-13
  -5.163  0.333E-13  0.333E-13
  -5.153  0.348E-13  0.348E-13
  -5.143  0.360E-13  0.360E-13
  -5.133  0.370E-13  0.370E-13
  -5.123  0.378E-13  0.378E-13
  -5.113  0.382E-13  0.382E-13
  -5.103  0.384E-13  0.384E-13
  -5.093  0.383E-13  0.383E-13
  -5.083  0.379E-13  0.379E-13
  -5.073  0.372E-13  0.372E-13
  -5.063  0.364E-13  0.364E-13
  -5.053  0.353E-13  0.353E-13
  -5.043  0.340E-13  0.340E-13
  -5.033  0.325E-13  0.325E-13
  -5.023  0.310E-13  0.310E-13
  -5.013  0.294E-13  0.294E-13
  -5.003  0.277E-13  0.277E-13
  -4.993  0.261E-13  0.261E-13
  -4.983  0.244E-13  0.244E-13
  -4.973  0.228E-13  0.228E-13
  -4.963  0.213E-13  0.213E-13
  -4.953  0.198E-13  0.198E-13
  -4.943  0.184E-13  0.184E-13
  -4.933  0.171E-13  0.171E-13
  -4.923  0.159E-13  0.159E-13
  -4.913  0.148E-13  0.148E-13
  -4.903  0.137E-13  0.137E-13
  -4.893  0.128E-13  0.128E-13
  -4.883  0.119E-13  0.119E-13
  -4.873  0.110E-13  0.110E-13
  -4.863  0.102E-13  0.102E-13
  -4.853  0.948E-14  0.948E-14
  -4.843  0.877E-14  0.877E-14
  -4.833  0.810E-14  0.810E-14
  -4.823  0.745E-14  0.745E-14
  -4.813  0.683E-14  0.683E-14
  -4.803  0.624E-14  0.624E-14
  -4.793  0.567E-14  0.567E-14
  -4.783  0.512E-14  0.512E-14
  -4.773  0.460E-14  0.460E-14
  -4.763  0.410E-14  0.410E-14
  -4.753  0.364E-14  0.364E-14
  -4.743  0.320E-14  0.320E-14
  -4.733  0.280E-14  0.280E-14
  -4.723  0.242E-14  0.242E-14
  -4.713  0.209E-14  0.209E-14
  -4.703  0.178E-14  0.178E-14
  -4.693  0.152E-14  0.152E-14
  -4.683  0.128E-14  0.128E-14
  -4.673  0.108E-14  0.108E-14
  -4.663  0.919E-15  0.919E-15
  -4.653  0.787E-15  0.787E-15
  -4.643  0.689E-15  0.689E-15
  -4.633  0.626E-15  0.626E-15
  -4.623  0.602E-15  0.602E-15
  -4.613  0.621E-15  0.621E-15
  -4.603  0.691E-15  0.691E-15
  -4.593  0.822E-15  0.822E-15
  -4.583  0.103E-14  0.103E-14
  -4.573  0.133E-14  0.133E-14
  -4.563  0.174E-14  0.174E-14
  -4.553  0.231E-14  0.231E-14
  -4.543  0.306E-14  0.306E-14
  -4.533  0.403E-14  0.403E-14
  -4.523  0.528E-14  0.528E-14
  -4.513  0.687E-14  0.687E-14
  -4.503  0.885E-14  0.885E-14
  -4.493  0.113E-13  0.113E-13
  -4.483  0.143E-13  0.143E-13
  -4.473  0.179E-13  0.179E-13
  -4.463  0.221E-13  0.221E-13
  -4.453  0.271E-13  0.271E-13
  -4.443  0.329E-13  0.329E-13
  -4.433  0.395E-13  0.395E-13
  -4.423  0.469E-13  0.469E-13
  -4.413  0.551E-13  0.551E-13
  -4.403  0.641E-13  0.641E-13
  -4.393  0.737E-13  0.737E-13
  -4.383  0.839E-13  0.839E-13
  -4.373  0.945E-13  0.945E-13
  -4.363  0.105E-12  0.105E-12
  -4.353  0.116E-12  0.116E-12
  -4.343  0.127E-12  0.127E-12
  -4.333  0.137E-12  0.137E-12
  -4.323  0.146E-12  0.146E-12
  -4.313  0.155E-12  0.155E-12
  -4.303  0.162E-12  0.162E-12
  -4.293  0.167E-12  0.167E-12
  -4.283  0.171E-12  0.171E-12
  -4.273  0.173E-12  0.173E-12
  -4.263  0.174E-12  0.174E-12
  -4.253  0.172E-12  0.172E-12
  -4.243  0.169E-12  0.169E-12
  -4.233  0.164E-12  0.164E-12
  -4.223  0.157E-12  0.157E-12
  -4.213  0.149E-12  0.149E-12
  -4.203  0.140E-12  0.140E-12
  -4.193  0.130E-12  0.130E-12
  -4.183  0.120E-12  0.120E-12
  -4.173  0.109E-12  0.109E-12
  -4.163  0.983E-13  0.983E-13
  -4.153  0.876E-13  0.876E-13
  -4.143  0.772E-13  0.772E-13
  -4.133  0.673E-13  0.673E-13
  -4.123  0.581E-13  0.581E-13
  -4.113  0.496E-13  0.496E-13
  -4.103  0.419E-13  0.419E-13
  -4.093  0.350E-13  0.350E-13
  -4.083  0.289E-13  0.289E-13
  -4.073  0.237E-13  0.237E-13
  -4.063  0.192E-13  0.192E-13
  -4.053  0.153E-13  0.153E-13
  -4.043  0.121E-13  0.121E-13
  -4.033  0.952E-14  0.952E-14
  -4.023  0.739E-14  0.739E-14
  -4.013  0.567E-14  0.567E-14
  -4.003  0.430E-14  0.430E-14
  -3.993  0.323E-14  0.323E-14
  -3.983  0.240E-14  0.240E-14
  -3.973  0.177E-14  0.177E-14
  -3.963  0.129E-14  0.129E-14
  -3.953  0.931E-15  0.931E-15
  -3.943  0.666E-15  0.666E-15
  -3.933  0.473E-15  0.473E-15
  -3.923  0.334E-15  0.334E-15
  -3.913  0.235E-15  0.235E-15
  -3.903  0.166E-15  0.166E-15
  -3.893  0.118E-15  0.118E-15
  -3.883  0.851E-16  0.851E-16
  -3.873  0.635E-16  0.635E-16
  -3.863  0.494E-16  0.494E-16
  -3.853  0.406E-16  0.406E-16
  -3.843  0.354E-16  0.354E-16
  -3.833  0.329E-16  0.329E-16
  -3.823  0.323E-16  0.323E-16
  -3.813  0.335E-16  0.335E-16
  -3.803  0.363E-16  0.363E-16
  -3.793  0.412E-16  0.412E-16
  -3.783  0.487E-16  0.487E-16
  -3.773  0.598E-16  0.598E-16
  -3.763  0.759E-16  0.759E-16
  -3.753  0.987E-16  0.987E-16
  -3.743  0.131E-15  0.131E-15
  -3.733  0.175E-15  0.175E-15
  -3.723  0.235E-15  0.235E-15
  -3.713  0.317E-15  0.317E-15
  -3.703  0.426E-15  0.426E-15
  -3.693  0.568E-15  0.568E-15
  -3.683  0.753E-15  0.753E-15
  -3.673  0.990E-15  0.990E-15
  -3.663  0.129E-14  0.129E-14
  -3.653  0.166E-14  0.166E-14
  -3.643  0.212E-14  0.212E-14
  -3.633  0.268E-14  0.268E-14
  -3.623  0.335E-14  0.335E-14
  -3.613  0.415E-14  0.415E-14
  -3.603  0.508E-14  0.508E-14
  -3.593  0.615E-14  0.615E-14
  -3.583  0.737E-14  0.737E-14
  -3.573  0.874E-14  0.874E-14
  -3.563  0.102E-13  0.102E-13
  -3.553  0.119E-13  0.119E-13
  -3.543  0.136E-13  0.136E-13
  -3.533  0.155E-13  0.155E-13
  -3.523  0.174E-13  0.174E-13
  -3.513  0.193E-13  0.193E-13
  -3.503  0.212E-13  0.212E-13
  -3.493  0.231E-13  0.231E-13
  -3.483  0.248E-13  0.248E-13
  -3.473  0.264E-13  0.264E-13
  -3.463  0.278E-13  0.278E-13
  -3.453  0.290E-13  0.290E-13
  -3.443  0.298E-13  0.298E-13
  -3.433  0.304E-13  0.304E-13
  -3.423  0.306E-13  0.306E-13
  -3.413  0.306E-13  0.306E-13
  -3.403  0.301E-13  0.301E-13
  -3.393  0.294E-13  0.294E-13
  -3.383  0.284E-13  0.284E-13
  -3.373  0.271E-13  0.271E-13
  -3.363  0.256E-13  0.256E-13
  -3.353  0.240E-13  0.240E-13
  -3.343  0.222E-13  0.222E-13
  -3.333  0.203E-13  0.203E-13
  -3.323  0.183E-13  0.183E-13
  -3.313  0.164E-13  0.164E-13
  -3.303  0.145E-13  0.145E-13
  -3.293  0.127E-13  0.127E-13
  -3.283  0.110E-13  0.110E-13
  -3.273  0.946E-14  0.946E-14
  -3.263  0.802E-14  0.802E-14
  -3.253  0.673E-14  0.673E-14
  -3.243  0.558E-14  0.558E-14
  -3.233  0.458E-14  0.458E-14
  -3.223  0.372E-14  0.372E-14
  -3.213  0.299E-14  0.299E-14
  -3.203  0.238E-14  0.238E-14
  -3.193  0.187E-14  0.187E-14
  -3.183  0.145E-14  0.145E-14
  -3.173  0.112E-14  0.112E-14
  -3.163  0.852E-15  0.852E-15
  -3.153  0.641E-15  0.641E-15
  -3.143  0.478E-15  0.478E-15
  -3.133  0.352E-15  0.352E-15
  -3.123  0.257E-15  0.257E-15
  -3.113  0.185E-15  0.185E-15
  -3.103  0.132E-15  0.132E-15
  -3.093  0.932E-16  0.932E-16
  -3.083  0.651E-16  0.651E-16
  -3.073  0.449E-16  0.449E-16
  -3.063  0.307E-16  0.307E-16
  -3.053  0.208E-16  0.208E-16
  -3.043  0.139E-16  0.139E-16
  -3.033  0.918E-17  0.918E-17
  -3.023  0.601E-17  0.601E-17
  -3.013  0.389E-17  0.389E-17
  -3.003  0.249E-17  0.249E-17
  -2.993  0.158E-17  0.158E-17
  -2.983  0.989E-18  0.989E-18
  -2.973  0.613E-18  0.613E-18
  -2.963  0.376E-18  0.376E-18
  -2.953  0.229E-18  0.229E-18
  -2.943  0.138E-18  0.138E-18
  -2.933  0.834E-19  0.834E-19
  -2.923  0.509E-19  0.509E-19
  -2.913  0.323E-19  0.323E-19
  -2.903  0.226E-19  0.226E-19
  -2.893  0.187E-19  0.187E-19
  -2.883  0.187E-19  0.187E-19
  -2.873  0.219E-19  0.219E-19
  -2.863  0.281E-19  0.281E-19
  -2.853  0.373E-19  0.373E-19
  -2.843  0.499E-19  0.499E-19
  -2.833  0.667E-19  0.667E-19
  -2.823  0.884E-19  0.884E-19
  -2.813  0.116E-18  0.116E-18
  -2.803  0.151E-18  0.151E-18
  -2.793  0.194E-18  0.194E-18
  -2.783  0.247E-18  0.247E-18
  -2.773  0.312E-18  0.312E-18
  -2.763  0.388E-18  0.388E-18
  -2.753  0.478E-18  0.478E-18
  -2.743  0.583E-18  0.583E-18
  -2.733  0.703E-18  0.703E-18
  -2.723  0.839E-18  0.839E-18
  -2.713  0.990E-18  0.990E-18
  -2.703  0.116E-17  0.116E-17
  -2.693  0.133E-17  0.133E-17
  -2.683  0.152E-17  0.152E-17
  -2.673  0.172E-17  0.172E-17
  -2.663  0.193E-17  0.193E-17
  -2.653  0.213E-17  0.213E-17
  -2.643  0.233E-17  0.233E-17
  -2.633  0.252E-17  0.252E-17
  -2.623  0.270E-17  0.270E-17
  -2.613  0.286E-17  0.286E-17
  -2.603  0.300E-17  0.300E-17
  -2.593  0.311E-17  0.311E-17
  -2.583  0.319E-17  0.319E-17
  -2.573  0.324E-17  0.324E-17
  -2.563  0.325E-17  0.325E-17
  -2.553  0.322E-17  0.322E-17
  -2.543  0.317E-17  0.317E-17
  -2.533  0.308E-17  0.308E-17
  -2.523  0.296E-17  0.296E-17
  -2.513  0.281E-17  0.281E-17
  -2.503  0.265E-17  0.265E-17
  -2.493  0.246E-17  0.246E-17
  -2.483  0.227E-17  0.227E-17
  -2.473  0.206E-17  0.206E-17
  -2.463  0.186E-17  0.186E-17
  -2.453  0.166E-17  0.166E-17
  -2.443  0.146E-17  0.146E-17
  -2.433  0.127E-17  0.127E-17
  -2.423  0.110E-17  0.110E-17
  -2.413  0.938E-18  0.938E-18
  -2.403  0.792E-18  0.792E-18
  -2.393  0.661E-18  0.661E-18
  -2.383  0.546E-18  0.546E-18
  -2.373  0.447E-18  0.447E-18
  -2.363  0.361E-18  0.361E-18
  -2.353  0.289E-18  0.289E-18
  -2.343  0.230E-18  0.230E-18
  -2.333  0.181E-18  0.181E-18
  -2.323  0.143E-18  0.143E-18
  -2.313  0.115E-18  0.115E-18
  -2.303  0.978E-19  0.978E-19
  -2.293  0.924E-19  0.924E-19
  -2.283  0.103E-18  0.103E-18
  -2.273  0.139E-18  0.139E-18
  -2.263  0.212E-18  0.212E-18
  -2.253  0.350E-18  0.350E-18
  -2.243  0.594E-18  0.594E-18
  -2.233  0.101E-17  0.101E-17
  -2.223  0.172E-17  0.172E-17
  -2.213  0.291E-17  0.291E-17
  -2.203  0.486E-17  0.486E-17
  -2.193  0.804E-17  0.804E-17
  -2.183  0.131E-16  0.131E-16
  -2.173  0.213E-16  0.213E-16
  -2.163  0.341E-16  0.341E-16
  -2.153  0.540E-16  0.540E-16
  -2.143  0.847E-16  0.847E-16
  -2.133  0.131E-15  0.131E-15
  -2.123  0.201E-15  0.201E-15
  -2.113  0.306E-15  0.306E-15
  -2.103  0.459E-15  0.459E-15
  -2.093  0.681E-15  0.681E-15
  -2.083  0.100E-14  0.100E-14
  -2.073  0.145E-14  0.145E-14
  -2.063  0.209E-14  0.209E-14
  -2.053  0.297E-14  0.297E-14
  -2.043  0.419E-14  0.419E-14
  -2.033  0.583E-14  0.583E-14
  -2.023  0.802E-14  0.802E-14
  -2.013  0.109E-13  0.109E-13
  -2.003  0.147E-13  0.147E-13
  -1.993  0.196E-13  0.196E-13
  -1.983  0.259E-13  0.259E-13
  -1.973  0.338E-13  0.338E-13
  -1.963  0.436E-13  0.436E-13
  -1.953  0.556E-13  0.556E-13
  -1.943  0.702E-13  0.702E-13
  -1.933  0.877E-13  0.877E-13
  -1.923  0.108E-12  0.108E-12
  -1.913  0.133E-12  0.133E-12
  -1.903  0.160E-12  0.160E-12
  -1.893  0.192E-12  0.192E-12
  -1.883  0.227E-12  0.227E-12
  -1.873  0.266E-12  0.266E-12
  -1.863  0.308E-12  0.308E-12
  -1.853  0.353E-12  0.353E-12
  -1.843  0.400E-12  0.400E-12
  -1.833  0.448E-12  0.448E-12
  -1.823  0.497E-12  0.497E-12
  -1.813  0.546E-12  0.546E-12
  -1.803  0.593E-12  0.593E-12
  -1.793  0.637E-12  0.637E-12
  -1.783  0.676E-12  0.676E-12
  -1.773  0.711E-12  0.711E-12
  -1.763  0.740E-12  0.740E-12
  -1.753  0.761E-12  0.761E-12
  -1.743  0.775E-12  0.775E-12
  -1.733  0.780E-12  0.780E-12
  -1.723  0.778E-12  0.778E-12
  -1.713  0.767E-12  0.767E-12
  -1.703  0.749E-12  0.749E-12
  -1.693  0.724E-12  0.724E-12
  -1.683  0.693E-12  0.693E-12
  -1.673  0.657E-12  0.657E-12
  -1.663  0.618E-12  0.618E-12
  -1.653  0.576E-12  0.576E-12
  -1.643  0.532E-12  0.532E-12
  -1.633  0.489E-12  0.489E-12
  -1.623  0.447E-12  0.447E-12
  -1.613  0.407E-12  0.407E-12
  -1.603  0.370E-12  0.370E-12
  -1.593  0.337E-12  0.337E-12
  -1.583  0.308E-12  0.308E-12
  -1.573  0.284E-12  0.284E-12
  -1.563  0.263E-12  0.263E-12
  -1.553  0.247E-12  0.247E-12
  -1.543  0.235E-12  0.235E-12
  -1.533  0.226E-12  0.226E-12
  -1.523  0.221E-12  0.221E-12
  -1.513  0.218E-12  0.218E-12
  -1.503  0.216E-12  0.216E-12
  -1.493  0.216E-12  0.216E-12
  -1.483  0.216E-12  0.216E-12
  -1.473  0.216E-12  0.216E-12
  -1.463  0.216E-12  0.216E-12
  -1.453  0.215E-12  0.215E-12
  -1.443  0.213E-12  0.213E-12
  -1.433  0.210E-12  0.210E-12
  -1.423  0.206E-12  0.206E-12
  -1.413  0.201E-12  0.201E-12
  -1.403  0.196E-12  0.196E-12
  -1.393  0.192E-12  0.192E-12
  -1.383  0.190E-12  0.190E-12
  -1.373  0.190E-12  0.190E-12
  -1.363  0.194E-12  0.194E-12
  -1.353  0.206E-12  0.206E-12
  -1.343  0.227E-12  0.227E-12
  -1.333  0.261E-12  0.261E-12
  -1.323  0.313E-12  0.313E-12
  -1.313  0.387E-12  0.387E-12
  -1.303  0.491E-12  0.491E-12
  -1.293  0.631E-12  0.631E-12
  -1.283  0.817E-12  0.817E-12
  -1.273  0.106E-11  0.106E-11
  -1.263  0.137E-11  0.137E-11
  -1.253  0.176E-11  0.176E-11
  -1.243  0.225E-11  0.225E-11
  -1.233  0.285E-11  0.285E-11
  -1.223  0.358E-11  0.358E-11
  -1.213  0.445E-11  0.445E-11
  -1.203  0.548E-11  0.548E-11
  -1.193  0.667E-11  0.667E-11
  -1.183  0.804E-11  0.804E-11
  -1.173  0.960E-11  0.960E-11
  -1.163  0.113E-10  0.113E-10
  -1.153  0.133E-10  0.133E-10
  -1.143  0.153E-10  0.153E-10
  -1.133  0.176E-10  0.176E-10
  -1.123  0.199E-10  0.199E-10
  -1.113  0.224E-10  0.224E-10
  -1.103  0.249E-10  0.249E-10
  -1.093  0.274E-10  0.274E-10
  -1.083  0.298E-10  0.298E-10
  -1.073  0.322E-10  0.322E-10
  -1.063  0.344E-10  0.344E-10
  -1.053  0.364E-10  0.364E-10
  -1.043  0.382E-10  0.382E-10
  -1.033  0.397E-10  0.397E-10
  -1.023  0.409E-10  0.409E-10
  -1.013  0.417E-10  0.417E-10
  -1.003  0.421E-10  0.421E-10
  -0.993  0.422E-10  0.422E-10
  -0.983  0.419E-10  0.419E-10
  -0.973  0.413E-10  0.413E-10
  -0.963  0.404E-10  0.404E-10
  -0.953  0.392E-10  0.392E-10
  -0.943  0.377E-10  0.377E-10
  -0.933  0.360E-10  0.360E-10
  -0.923  0.341E-10  0.341E-10
  -0.913  0.321E-10  0.321E-10
  -0.903  0.300E-10  0.300E-10
  -0.893  0.279E-10  0.279E-10
  -0.883  0.257E-10  0.257E-10
  -0.873  0.236E-10  0.236E-10
  -0.863  0.216E-10  0.216E-10
  -0.853  0.196E-10  0.196E-10
  -0.843  0.178E-10  0.178E-10
  -0.833  0.160E-10  0.160E-10
  -0.823  0.144E-10  0.144E-10
  -0.813  0.129E-10  0.129E-10
  -0.803  0.115E-10  0.115E-10
  -0.793  0.102E-10  0.102E-10
  -0.783  0.903E-11  0.903E-11
  -0.773  0.798E-11  0.798E-11
  -0.763  0.703E-11  0.703E-11
  -0.753  0.618E-11  0.618E-11
  -0.743  0.542E-11  0.542E-11
  -0.733  0.474E-11  0.474E-11
  -0.723  0.414E-11  0.414E-11
  -0.713  0.360E-11  0.360E-11
  -0.703  0.313E-11  0.313E-11
  -0.693  0.273E-11  0.273E-11
  -0.683  0.238E-11  0.238E-11
  -0.673  0.209E-11  0.209E-11
  -0.663  0.185E-11  0.185E-11
  -0.653  0.166E-11  0.166E-11
  -0.643  0.152E-11  0.152E-11
  -0.633  0.143E-11  0.143E-11
  -0.623  0.138E-11  0.138E-11
  -0.613  0.137E-11  0.137E-11
  -0.603  0.141E-11  0.141E-11
  -0.593  0.148E-11  0.148E-11
  -0.583  0.159E-11  0.159E-11
  -0.573  0.174E-11  0.174E-11
  -0.563  0.192E-11  0.192E-11
  -0.553  0.213E-11  0.213E-11
  -0.543  0.237E-11  0.237E-11
  -0.533  0.262E-11  0.262E-11
  -0.523  0.290E-11  0.290E-11
  -0.513  0.319E-11  0.319E-11
  -0.503  0.349E-11  0.349E-11
  -0.493  0.381E-11  0.381E-11
  -0.483  0.413E-11  0.413E-11
  -0.473  0.446E-11  0.446E-11
  -0.463  0.481E-11  0.481E-11
  -0.453  0.518E-11  0.518E-11
  -0.443  0.557E-11  0.557E-11
  -0.433  0.601E-11  0.601E-11
  -0.423  0.651E-11  0.651E-11
  -0.413  0.709E-11  0.709E-11
  -0.403  0.779E-11  0.779E-11
  -0.393  0.863E-11  0.863E-11
  -0.383  0.964E-11  0.964E-11
  -0.373  0.109E-10  0.109E-10
  -0.363  0.124E-10  0.124E-10
  -0.353  0.141E-10  0.141E-10
  -0.343  0.162E-10  0.162E-10
  -0.333  0.187E-10  0.187E-10
  -0.323  0.215E-10  0.215E-10
  -0.313  0.247E-10  0.247E-10
  -0.303  0.282E-10  0.282E-10
  -0.293  0.322E-10  0.322E-10
  -0.283  0.364E-10  0.364E-10
  -0.273  0.409E-10  0.409E-10
  -0.263  0.456E-10  0.456E-10
  -0.253  0.504E-10  0.504E-10
  -0.243  0.552E-10  0.552E-10
  -0.233  0.598E-10  0.598E-10
  -0.223  0.643E-10  0.643E-10
  -0.213  0.684E-10  0.684E-10
  -0.203  0.720E-10  0.720E-10
  -0.193  0.750E-10  0.750E-10
  -0.183  0.774E-10  0.774E-10
  -0.173  0.790E-10  0.790E-10
  -0.163  0.799E-10  0.799E-10
  -0.153  0.799E-10  0.799E-10
  -0.143  0.792E-10  0.792E-10
  -0.133  0.777E-10  0.777E-10
  -0.123  0.755E-10  0.755E-10
  -0.113  0.727E-10  0.727E-10
  -0.103  0.693E-10  0.693E-10
  -0.093  0.656E-10  0.656E-10
  -0.083  0.616E-10  0.616E-10
  -0.073  0.574E-10  0.574E-10
  -0.063  0.532E-10  0.532E-10
  -0.053  0.491E-10  0.491E-10
  -0.043  0.450E-10  0.450E-10
  -0.033  0.413E-10  0.413E-10
  -0.023  0.378E-10  0.378E-10
  -0.013  0.346E-10  0.346E-10
  -0.003  0.317E-10  0.317E-10
   0.007  0.292E-10  0.292E-10
   0.017  0.270E-10  0.270E-10
   0.027  0.250E-10  0.250E-10
   0.037  0.234E-10  0.234E-10
   0.047  0.219E-10  0.219E-10
   0.057  0.206E-10  0.206E-10
   0.067  0.195E-10  0.195E-10
   0.077  0.184E-10  0.184E-10
   0.087  0.174E-10  0.174E-10
   0.097  0.164E-10  0.164E-10
   0.107  0.154E-10  0.154E-10
   0.117  0.144E-10  0.144E-10
   0.127  0.134E-10  0.134E-10
   0.137  0.124E-10  0.124E-10
   0.147  0.114E-10  0.114E-10
   0.157  0.103E-10  0.103E-10
   0.167  0.933E-11  0.933E-11
   0.177  0.835E-11  0.835E-11
   0.187  0.742E-11  0.742E-11
   0.197  0.656E-11  0.656E-11
   0.207  0.580E-11  0.580E-11
   0.217  0.518E-11  0.518E-11
   0.227  0.479E-11  0.479E-11
   0.237  0.473E-11  0.473E-11
   0.247  0.525E-11  0.525E-11
   0.257  0.673E-11  0.673E-11
   0.267  0.983E-11  0.983E-11
   0.277  0.157E-10  0.157E-10
   0.287  0.264E-10  0.264E-10
   0.297  0.452E-10  0.452E-10
   0.307  0.776E-10  0.776E-10
   0.317  0.133E-09  0.133E-09
   0.327  0.225E-09  0.225E-09
   0.337  0.379E-09  0.379E-09
   0.347  0.631E-09  0.631E-09
   0.357  0.104E-08  0.104E-08
   0.367  0.170E-08  0.170E-08
   0.377  0.274E-08  0.274E-08
   0.387  0.437E-08  0.437E-08
   0.397  0.690E-08  0.690E-08
   0.407  0.108E-07  0.108E-07
   0.417  0.167E-07  0.167E-07
   0.427  0.256E-07  0.256E-07
   0.437  0.388E-07  0.388E-07
   0.447  0.582E-07  0.582E-07
   0.457  0.864E-07  0.864E-07
   0.467  0.127E-06  0.127E-06
   0.477  0.185E-06  0.185E-06
   0.487  0.266E-06  0.266E-06
   0.497  0.380E-06  0.380E-06
   0.507  0.537E-06  0.537E-06
   0.517  0.750E-06  0.750E-06
   0.527  0.104E-05  0.104E-05
   0.537  0.142E-05  0.142E-05
   0.547  0.194E-05  0.194E-05
   0.557  0.260E-05  0.260E-05
   0.567  0.347E-05  0.347E-05
   0.577  0.458E-05  0.458E-05
   0.587  0.600E-05  0.600E-05
   0.597  0.777E-05  0.777E-05
   0.607  0.999E-05  0.999E-05
   0.617  0.127E-04  0.127E-04
   0.627  0.161E-04  0.161E-04
   0.637  0.201E-04  0.201E-04
   0.647  0.249E-04  0.249E-04
   0.657  0.307E-04  0.307E-04
   0.667  0.374E-04  0.374E-04
   0.677  0.453E-04  0.453E-04
   0.687  0.543E-04  0.543E-04
   0.697  0.647E-04  0.647E-04
   0.707  0.763E-04  0.763E-04
   0.717  0.894E-04  0.894E-04
   0.727  0.104E-03  0.104E-03
   0.737  0.120E-03  0.120E-03
   0.747  0.137E-03  0.137E-03
   0.757  0.155E-03  0.155E-03
   0.767  0.174E-03  0.174E-03
   0.777  0.194E-03  0.194E-03
   0.787  0.215E-03  0.215E-03
   0.797  0.236E-03  0.236E-03
   0.807  0.257E-03  0.257E-03
   0.817  0.277E-03  0.277E-03
   0.827  0.296E-03  0.296E-03
   0.837  0.314E-03  0.314E-03
   0.847  0.331E-03  0.331E-03
   0.857  0.345E-03  0.345E-03
   0.867  0.358E-03  0.358E-03
   0.877  0.367E-03  0.367E-03
   0.887  0.374E-03  0.374E-03
   0.897  0.378E-03  0.378E-03
   0.907  0.380E-03  0.380E-03
   0.917  0.378E-03  0.378E-03
   0.927  0.375E-03  0.375E-03
   0.937  0.369E-03  0.369E-03
   0.947  0.361E-03  0.361E-03
   0.957  0.352E-03  0.352E-03
   0.967  0.341E-03  0.341E-03
   0.977  0.331E-03  0.331E-03
   0.987  0.320E-03  0.320E-03
   0.997  0.309E-03  0.309E-03
   1.007  0.299E-03  0.299E-03
   1.017  0.289E-03  0.289E-03
   1.027  0.281E-03  0.281E-03
   1.037  0.273E-03  0.273E-03
   1.047  0.267E-03  0.267E-03
   1.057  0.261E-03  0.261E-03
   1.067  0.256E-03  0.256E-03
   1.077  0.252E-03  0.252E-03
   1.087  0.249E-03  0.249E-03
   1.097  0.245E-03  0.245E-03
   1.107  0.242E-03  0.242E-03
   1.117  0.238E-03  0.238E-03
   1.127  0.234E-03  0.234E-03
   1.137  0.229E-03  0.229E-03
   1.147  0.224E-03  0.224E-03
   1.157  0.217E-03  0.217E-03
   1.167  0.210E-03  0.210E-03
   1.177  0.201E-03  0.201E-03
   1.187  0.192E-03  0.192E-03
   1.197  0.182E-03  0.182E-03
   1.207  0.172E-03  0.172E-03
   1.217  0.161E-03  0.161E-03
   1.227  0.149E-03  0.149E-03
   1.237  0.138E-03  0.138E-03
   1.247  0.127E-03  0.127E-03
   1.257  0.115E-03  0.115E-03
   1.267  0.105E-03  0.105E-03
   1.277  0.943E-04  0.943E-04
   1.287  0.848E-04  0.848E-04
   1.297  0.759E-04  0.759E-04
   1.307  0.680E-04  0.680E-04
   1.317  0.610E-04  0.610E-04
   1.327  0.549E-04  0.549E-04
   1.337  0.499E-04  0.499E-04
   1.347  0.457E-04  0.457E-04
   1.357  0.425E-04  0.425E-04
   1.367  0.402E-04  0.402E-04
   1.377  0.387E-04  0.387E-04
   1.387  0.378E-04  0.378E-04
   1.397  0.376E-04  0.376E-04
   1.407  0.379E-04  0.379E-04
   1.417  0.386E-04  0.386E-04
   1.427  0.396E-04  0.396E-04
   1.437  0.408E-04  0.408E-04
   1.447  0.422E-04  0.422E-04
   1.457  0.436E-04  0.436E-04
   1.467  0.451E-04  0.451E-04
   1.477  0.465E-04  0.465E-04
   1.487  0.479E-04  0.479E-04
   1.497  0.492E-04  0.492E-04
   1.507  0.504E-04  0.504E-04
   1.517  0.516E-04  0.516E-04
   1.527  0.528E-04  0.528E-04
   1.537  0.539E-04  0.539E-04
   1.547  0.551E-04  0.551E-04
   1.557  0.563E-04  0.563E-04
   1.567  0.575E-04  0.575E-04
   1.577  0.588E-04  0.588E-04
   1.587  0.601E-04  0.601E-04
   1.597  0.614E-04  0.614E-04
   1.607  0.628E-04  0.628E-04
   1.617  0.641E-04  0.641E-04
   1.627  0.653E-04  0.653E-04
   1.637  0.663E-04  0.663E-04
   1.647  0.672E-04  0.672E-04
   1.657  0.679E-04  0.679E-04
   1.667  0.682E-04  0.682E-04
   1.677  0.683E-04  0.683E-04
   1.687  0.680E-04  0.680E-04
   1.697  0.674E-04  0.674E-04
   1.707  0.665E-04  0.665E-04
   1.717  0.653E-04  0.653E-04
   1.727  0.638E-04  0.638E-04
   1.737  0.621E-04  0.621E-04
   1.747  0.603E-04  0.603E-04
   1.757  0.584E-04  0.584E-04
   1.767  0.565E-04  0.565E-04
   1.777  0.546E-04  0.546E-04
   1.787  0.528E-04  0.528E-04
   1.797  0.512E-04  0.512E-04
   1.807  0.498E-04  0.498E-04
   1.817  0.487E-04  0.487E-04
   1.827  0.477E-04  0.477E-04
   1.837  0.470E-04  0.470E-04
   1.847  0.465E-04  0.465E-04
   1.857  0.462E-04  0.462E-04
   1.867  0.461E-04  0.461E-04
   1.877  0.461E-04  0.461E-04
   1.887  0.461E-04  0.461E-04
   1.897  0.462E-04  0.462E-04
   1.907  0.462E-04  0.462E-04
   1.917  0.461E-04  0.461E-04
   1.927  0.460E-04  0.460E-04
   1.937  0.457E-04  0.457E-04
   1.947  0.452E-04  0.452E-04
   1.957  0.445E-04  0.445E-04
   1.967  0.437E-04  0.437E-04
   1.977  0.426E-04  0.426E-04
   1.987  0.413E-04  0.413E-04
   1.997  0.399E-04  0.399E-04
   2.007  0.383E-04  0.383E-04
   2.017  0.365E-04  0.365E-04
   2.027  0.347E-04  0.347E-04
   2.037  0.327E-04  0.327E-04
   2.047  0.307E-04  0.307E-04
   2.057  0.287E-04  0.287E-04
   2.067  0.268E-04  0.268E-04
   2.077  0.248E-04  0.248E-04
   2.087  0.230E-04  0.230E-04
   2.097  0.214E-04  0.214E-04
   2.107  0.199E-04  0.199E-04
   2.117  0.185E-04  0.185E-04
   2.127  0.174E-04  0.174E-04
   2.137  0.165E-04  0.165E-04
   2.147  0.158E-04  0.158E-04
   2.157  0.154E-04  0.154E-04
   2.167  0.152E-04  0.152E-04
   2.177  0.152E-04  0.152E-04
   2.187  0.153E-04  0.153E-04
   2.197  0.157E-04  0.157E-04
   2.207  0.162E-04  0.162E-04
   2.217  0.168E-04  0.168E-04
   2.227  0.175E-04  0.175E-04
   2.237  0.182E-04  0.182E-04
   2.247  0.190E-04  0.190E-04
   2.257  0.197E-04  0.197E-04
   2.267  0.203E-04  0.203E-04
   2.277  0.209E-04  0.209E-04
   2.287  0.213E-04  0.213E-04
   2.297  0.216E-04  0.216E-04
   2.307  0.217E-04  0.217E-04
   2.317  0.217E-04  0.217E-04
   2.327  0.216E-04  0.216E-04
   2.337  0.213E-04  0.213E-04
   2.347  0.209E-04  0.209E-04
   2.357  0.205E-04  0.205E-04
   2.367  0.199E-04  0.199E-04
   2.377  0.193E-04  0.193E-04
   2.387  0.187E-04  0.187E-04
   2.397  0.182E-04  0.182E-04
   2.407  0.177E-04  0.177E-04
   2.417  0.173E-04  0.173E-04
   2.427  0.170E-04  0.170E-04
   2.437  0.169E-04  0.169E-04
   2.447  0.170E-04  0.170E-04
   2.457  0.173E-04  0.173E-04
   2.467  0.177E-04  0.177E-04
   2.477  0.184E-04  0.184E-04
   2.487  0.193E-04  0.193E-04
   2.497  0.204E-04  0.204E-04
   2.507  0.216E-04  0.216E-04
   2.517  0.230E-04  0.230E-04
   2.527  0.245E-04  0.245E-04
   2.537  0.261E-04  0.261E-04
   2.547  0.278E-04  0.278E-04
   2.557  0.295E-04  0.295E-04
   2.567  0.311E-04  0.311E-04
   2.577  0.327E-04  0.327E-04
   2.587  0.341E-04  0.341E-04
   2.597  0.354E-04  0.354E-04
   2.607  0.366E-04  0.366E-04
   2.617  0.376E-04  0.376E-04
   2.627  0.384E-04  0.384E-04
   2.637  0.390E-04  0.390E-04
   2.647  0.395E-04  0.395E-04
   2.657  0.399E-04  0.399E-04
   2.667  0.401E-04  0.401E-04
   2.677  0.402E-04  0.402E-04
   2.687  0.403E-04  0.403E-04
   2.697  0.404E-04  0.404E-04
   2.707  0.404E-04  0.404E-04
   2.717  0.404E-04  0.404E-04
   2.727  0.404E-04  0.404E-04
   2.737  0.404E-04  0.404E-04
   2.747  0.404E-04  0.404E-04
   2.757  0.403E-04  0.403E-04
   2.767  0.402E-04  0.402E-04
   2.777  0.400E-04  0.400E-04
   2.787  0.397E-04  0.397E-04
   2.797  0.393E-04  0.393E-04
   2.807  0.387E-04  0.387E-04
   2.817  0.378E-04  0.378E-04
   2.827  0.368E-04  0.368E-04
   2.837  0.356E-04  0.356E-04
   2.847  0.341E-04  0.341E-04
   2.857  0.325E-04  0.325E-04
   2.867  0.307E-04  0.307E-04
   2.877  0.288E-04  0.288E-04
   2.887  0.269E-04  0.269E-04
   2.897  0.248E-04  0.248E-04
   2.907  0.228E-04  0.228E-04
   2.917  0.208E-04  0.208E-04
   2.927  0.190E-04  0.190E-04
   2.937  0.173E-04  0.173E-04
   2.947  0.157E-04  0.157E-04
   2.957  0.145E-04  0.145E-04
   2.967  0.134E-04  0.134E-04
   2.977  0.127E-04  0.127E-04
   2.987  0.123E-04  0.123E-04
   2.997  0.122E-04  0.122E-04
   3.007  0.125E-04  0.125E-04
   3.017  0.131E-04  0.131E-04
   3.027  0.140E-04  0.140E-04
   3.037  0.153E-04  0.153E-04
   3.047  0.168E-04  0.168E-04
   3.057  0.187E-04  0.187E-04
   3.067  0.208E-04  0.208E-04
   3.077  0.231E-04  0.231E-04
   3.087  0.255E-04  0.255E-04
   3.097  0.280E-04  0.280E-04
   3.107  0.306E-04  0.306E-04
   3.117  0.331E-04  0.331E-04
   3.127  0.355E-04  0.355E-04
   3.137  0.377E-04  0.377E-04
   3.147  0.397E-04  0.397E-04
   3.157  0.415E-04  0.415E-04
   3.167  0.429E-04  0.429E-04
   3.177  0.439E-04  0.439E-04
   3.187  0.446E-04  0.446E-04
   3.197  0.450E-04  0.450E-04
   3.207  0.450E-04  0.450E-04
   3.217  0.446E-04  0.446E-04
   3.227  0.440E-04  0.440E-04
   3.237  0.431E-04  0.431E-04
   3.247  0.421E-04  0.421E-04
   3.257  0.410E-04  0.410E-04
   3.267  0.398E-04  0.398E-04
   3.277  0.386E-04  0.386E-04
   3.287  0.375E-04  0.375E-04
   3.297  0.366E-04  0.366E-04
   3.307  0.358E-04  0.358E-04
   3.317  0.352E-04  0.352E-04
   3.327  0.348E-04  0.348E-04
   3.337  0.346E-04  0.346E-04
   3.347  0.347E-04  0.347E-04
   3.357  0.349E-04  0.349E-04
   3.367  0.354E-04  0.354E-04
   3.377  0.360E-04  0.360E-04
   3.387  0.367E-04  0.367E-04
   3.397  0.375E-04  0.375E-04
   3.407  0.384E-04  0.384E-04
   3.417  0.393E-04  0.393E-04
   3.427  0.402E-04  0.402E-04
   3.437  0.412E-04  0.412E-04
   3.447  0.422E-04  0.422E-04
   3.457  0.431E-04  0.431E-04
   3.467  0.442E-04  0.442E-04
   3.477  0.453E-04  0.453E-04
   3.487  0.465E-04  0.465E-04
   3.497  0.479E-04  0.479E-04
   3.507  0.495E-04  0.495E-04
   3.517  0.514E-04  0.514E-04
   3.527  0.537E-04  0.537E-04
   3.537  0.564E-04  0.564E-04
   3.547  0.596E-04  0.596E-04
   3.557  0.633E-04  0.633E-04
   3.567  0.677E-04  0.677E-04
   3.577  0.727E-04  0.727E-04
   3.587  0.783E-04  0.783E-04
   3.597  0.846E-04  0.846E-04
   3.607  0.916E-04  0.916E-04
   3.617  0.991E-04  0.991E-04
   3.627  0.107E-03  0.107E-03
   3.637  0.115E-03  0.115E-03
   3.647  0.124E-03  0.124E-03
   3.657  0.133E-03  0.133E-03
   3.667  0.142E-03  0.142E-03
   3.677  0.150E-03  0.150E-03
   3.687  0.158E-03  0.158E-03
   3.697  0.165E-03  0.165E-03
   3.707  0.172E-03  0.172E-03
   3.717  0.177E-03  0.177E-03
   3.727  0.181E-03  0.181E-03
   3.737  0.184E-03  0.184E-03
   3.747  0.185E-03  0.185E-03
   3.757  0.185E-03  0.185E-03
   3.767  0.183E-03  0.183E-03
   3.777  0.180E-03  0.180E-03
   3.787  0.176E-03  0.176E-03
   3.797  0.170E-03  0.170E-03
   3.807  0.164E-03  0.164E-03
   3.817  0.158E-03  0.158E-03
   3.827  0.151E-03  0.151E-03
   3.837  0.145E-03  0.145E-03
   3.847  0.140E-03  0.140E-03
   3.857  0.138E-03  0.138E-03
   3.867  0.138E-03  0.138E-03
   3.877  0.143E-03  0.143E-03
   3.887  0.154E-03  0.154E-03
   3.897  0.173E-03  0.173E-03
   3.907  0.204E-03  0.204E-03
   3.917  0.249E-03  0.249E-03
   3.927  0.314E-03  0.314E-03
   3.937  0.404E-03  0.404E-03
   3.947  0.528E-03  0.528E-03
   3.957  0.695E-03  0.695E-03
   3.967  0.918E-03  0.918E-03
   3.977  0.121E-02  0.121E-02
   3.987  0.159E-02  0.159E-02
   3.997  0.207E-02  0.207E-02
   4.007  0.269E-02  0.269E-02
   4.017  0.346E-02  0.346E-02
   4.027  0.442E-02  0.442E-02
   4.037  0.559E-02  0.559E-02
   4.047  0.701E-02  0.701E-02
   4.057  0.871E-02  0.871E-02
   4.067  0.107E-01  0.107E-01
   4.077  0.131E-01  0.131E-01
   4.087  0.158E-01  0.158E-01
   4.097  0.189E-01  0.189E-01
   4.107  0.224E-01  0.224E-01
   4.117  0.263E-01  0.263E-01
   4.127  0.306E-01  0.306E-01
   4.137  0.352E-01  0.352E-01
   4.147  0.402E-01  0.402E-01
   4.157  0.454E-01  0.454E-01
   4.167  0.509E-01  0.509E-01
   4.177  0.565E-01  0.565E-01
   4.187  0.622E-01  0.622E-01
   4.197  0.678E-01  0.678E-01
   4.207  0.733E-01  0.733E-01
   4.217  0.786E-01  0.786E-01
   4.227  0.836E-01  0.836E-01
   4.237  0.882E-01  0.882E-01
   4.247  0.924E-01  0.924E-01
   4.257  0.961E-01  0.961E-01
   4.267  0.992E-01  0.992E-01
   4.277  0.102E+00  0.102E+00
   4.287  0.104E+00  0.104E+00
   4.297  0.105E+00  0.105E+00
   4.307  0.106E+00  0.106E+00
   4.317  0.107E+00  0.107E+00
   4.327  0.107E+00  0.107E+00
   4.337  0.107E+00  0.107E+00
   4.347  0.107E+00  0.107E+00
   4.357  0.106E+00  0.106E+00
   4.367  0.106E+00  0.106E+00
   4.377  0.106E+00  0.106E+00
   4.387  0.107E+00  0.107E+00
   4.397  0.108E+00  0.108E+00
   4.407  0.109E+00  0.109E+00
   4.417  0.111E+00  0.111E+00
   4.427  0.114E+00  0.114E+00
   4.437  0.118E+00  0.118E+00
   4.447  0.123E+00  0.123E+00
   4.457  0.129E+00  0.129E+00
   4.467  0.136E+00  0.136E+00
   4.477  0.144E+00  0.144E+00
   4.487  0.153E+00  0.153E+00
   4.497  0.162E+00  0.162E+00
   4.507  0.172E+00  0.172E+00
   4.517  0.182E+00  0.182E+00
   4.527  0.192E+00  0.192E+00
   4.537  0.203E+00  0.203E+00
   4.547  0.212E+00  0.212E+00
   4.557  0.222E+00  0.222E+00
   4.567  0.230E+00  0.230E+00
   4.577  0.237E+00  0.237E+00
   4.587  0.243E+00  0.243E+00
   4.597  0.248E+00  0.248E+00
   4.607  0.251E+00  0.251E+00
   4.617  0.252E+00  0.252E+00
   4.627  0.252E+00  0.252E+00
   4.637  0.250E+00  0.250E+00
   4.647  0.246E+00  0.246E+00
   4.657  0.241E+00  0.241E+00
   4.667  0.235E+00  0.235E+00
   4.677  0.228E+00  0.228E+00
   4.687  0.219E+00  0.219E+00
   4.697  0.210E+00  0.210E+00
   4.707  0.200E+00  0.200E+00
   4.717  0.189E+00  0.189E+00
   4.727  0.178E+00  0.178E+00
   4.737  0.167E+00  0.167E+00
   4.747  0.156E+00  0.156E+00
   4.757  0.145E+00  0.145E+00
   4.767  0.135E+00  0.135E+00
   4.777  0.124E+00  0.124E+00
   4.787  0.114E+00  0.114E+00
   4.797  0.105E+00  0.105E+00
   4.807  0.961E-01  0.961E-01
   4.817  0.878E-01  0.878E-01
   4.827  0.802E-01  0.802E-01
   4.837  0.732E-01  0.732E-01
   4.847  0.669E-01  0.669E-01
   4.857  0.613E-01  0.613E-01
   4.867  0.563E-01  0.563E-01
   4.877  0.519E-01  0.519E-01
   4.887  0.481E-01  0.481E-01
   4.897  0.448E-01  0.448E-01
   4.907  0.419E-01  0.419E-01
   4.917  0.394E-01  0.394E-01
   4.927  0.371E-01  0.371E-01
   4.937  0.351E-01  0.351E-01
   4.947  0.333E-01  0.333E-01
   4.957  0.316E-01  0.316E-01
   4.967  0.299E-01  0.299E-01
   4.977  0.283E-01  0.283E-01
   4.987  0.266E-01  0.266E-01
   4.997  0.250E-01  0.250E-01
   5.007  0.233E-01  0.233E-01
   5.017  0.216E-01  0.216E-01
   5.027  0.198E-01  0.198E-01
   5.037  0.181E-01  0.181E-01
   5.047  0.164E-01  0.164E-01
   5.057  0.147E-01  0.147E-01
   5.067  0.130E-01  0.130E-01
   5.077  0.115E-01  0.115E-01
   5.087  0.100E-01  0.100E-01
   5.097  0.871E-02  0.871E-02
   5.107  0.751E-02  0.751E-02
   5.117  0.646E-02  0.646E-02
   5.127  0.556E-02  0.556E-02
   5.137  0.482E-02  0.482E-02
   5.147  0.426E-02  0.426E-02
   5.157  0.389E-02  0.389E-02
   5.167  0.371E-02  0.371E-02
   5.177  0.374E-02  0.374E-02
   5.187  0.401E-02  0.401E-02
   5.197  0.454E-02  0.454E-02
   5.207  0.536E-02  0.536E-02
   5.217  0.651E-02  0.651E-02
   5.227  0.803E-02  0.803E-02
   5.237  0.998E-02  0.998E-02
   5.247  0.124E-01  0.124E-01
   5.257  0.154E-01  0.154E-01
   5.267  0.189E-01  0.189E-01
   5.277  0.231E-01  0.231E-01
   5.287  0.280E-01  0.280E-01
   5.297  0.336E-01  0.336E-01
   5.307  0.399E-01  0.399E-01
   5.317  0.471E-01  0.471E-01
   5.327  0.549E-01  0.549E-01
   5.337  0.635E-01  0.635E-01
   5.347  0.727E-01  0.727E-01
   5.357  0.825E-01  0.825E-01
   5.367  0.927E-01  0.927E-01
   5.377  0.103E+00  0.103E+00
   5.387  0.114E+00  0.114E+00
   5.397  0.125E+00  0.125E+00
   5.407  0.135E+00  0.135E+00
   5.417  0.145E+00  0.145E+00
   5.427  0.154E+00  0.154E+00
   5.437  0.163E+00  0.163E+00
   5.447  0.170E+00  0.170E+00
   5.457  0.177E+00  0.177E+00
   5.467  0.182E+00  0.182E+00
   5.477  0.185E+00  0.185E+00
   5.487  0.187E+00  0.187E+00
   5.497  0.188E+00  0.188E+00
   5.507  0.187E+00  0.187E+00
   5.517  0.185E+00  0.185E+00
   5.527  0.181E+00  0.181E+00
   5.537  0.176E+00  0.176E+00
   5.547  0.169E+00  0.169E+00
   5.557  0.162E+00  0.162E+00
   5.567  0.154E+00  0.154E+00
   5.577  0.145E+00  0.145E+00
   5.587  0.135E+00  0.135E+00
   5.597  0.126E+00  0.126E+00
   5.607  0.116E+00  0.116E+00
   5.617  0.106E+00  0.106E+00
   5.627  0.967E-01  0.967E-01
   5.637  0.876E-01  0.876E-01
   5.647  0.789E-01  0.789E-01
   5.657  0.709E-01  0.709E-01
   5.667  0.634E-01  0.634E-01
   5.677  0.566E-01  0.566E-01
   5.687  0.506E-01  0.506E-01
   5.697  0.452E-01  0.452E-01
   5.707  0.405E-01  0.405E-01
   5.717  0.364E-01  0.364E-01
   5.727  0.329E-01  0.329E-01
   5.737  0.299E-01  0.299E-01
   5.747  0.274E-01  0.274E-01
   5.757  0.252E-01  0.252E-01
   5.767  0.234E-01  0.234E-01
   5.777  0.218E-01  0.218E-01
   5.787  0.204E-01  0.204E-01
   5.797  0.191E-01  0.191E-01
   5.807  0.179E-01  0.179E-01
   5.817  0.168E-01  0.168E-01
   5.827  0.157E-01  0.157E-01
   5.837  0.146E-01  0.146E-01
   5.847  0.135E-01  0.135E-01
   5.857  0.124E-01  0.124E-01
   5.867  0.113E-01  0.113E-01
   5.877  0.102E-01  0.102E-01
   5.887  0.919E-02  0.919E-02
   5.897  0.817E-02  0.817E-02
   5.907  0.719E-02  0.719E-02
   5.917  0.627E-02  0.627E-02
   5.927  0.542E-02  0.542E-02
   5.937  0.463E-02  0.463E-02
   5.947  0.392E-02  0.392E-02
   5.957  0.329E-02  0.329E-02
   5.967  0.273E-02  0.273E-02
   5.977  0.224E-02  0.224E-02
   5.987  0.182E-02  0.182E-02
   5.997  0.147E-02  0.147E-02
   6.007  0.118E-02  0.118E-02
   6.017  0.941E-03  0.941E-03
   6.027  0.749E-03  0.749E-03
   6.037  0.597E-03  0.597E-03
   6.047  0.480E-03  0.480E-03
   6.057  0.393E-03  0.393E-03
   6.067  0.331E-03  0.331E-03
   6.077  0.290E-03  0.290E-03
   6.087  0.265E-03  0.265E-03
   6.097  0.254E-03  0.254E-03
   6.107  0.253E-03  0.253E-03
   6.117  0.262E-03  0.262E-03
   6.127  0.277E-03  0.277E-03
   6.137  0.297E-03  0.297E-03
   6.147  0.320E-03  0.320E-03
   6.157  0.346E-03  0.346E-03
   6.167  0.374E-03  0.374E-03
   6.177  0.402E-03  0.402E-03
   6.187  0.430E-03  0.430E-03
   6.197  0.457E-03  0.457E-03
   6.207  0.483E-03  0.483E-03
   6.217  0.507E-03  0.507E-03
   6.227  0.528E-03  0.528E-03
   6.237  0.547E-03  0.547E-03
   6.247  0.564E-03  0.564E-03
   6.257  0.578E-03  0.578E-03
   6.267  0.589E-03  0.589E-03
   6.277  0.598E-03  0.598E-03
   6.287  0.605E-03  0.605E-03
   6.297  0.611E-03  0.611E-03
   6.307  0.615E-03  0.615E-03
   6.317  0.620E-03  0.620E-03
   6.327  0.626E-03  0.626E-03
   6.337  0.635E-03  0.635E-03
   6.347  0.650E-03  0.650E-03
   6.357  0.674E-03  0.674E-03
   6.367  0.712E-03  0.712E-03
   6.377  0.769E-03  0.769E-03
   6.387  0.854E-03  0.854E-03
   6.397  0.977E-03  0.977E-03
   6.407  0.115E-02  0.115E-02
   6.417  0.139E-02  0.139E-02
   6.427  0.171E-02  0.171E-02
   6.437  0.215E-02  0.215E-02
   6.447  0.272E-02  0.272E-02
   6.457  0.345E-02  0.345E-02
   6.467  0.440E-02  0.440E-02
   6.477  0.559E-02  0.559E-02
   6.487  0.707E-02  0.707E-02
   6.497  0.890E-02  0.890E-02
   6.507  0.111E-01  0.111E-01
   6.517  0.138E-01  0.138E-01
   6.527  0.169E-01  0.169E-01
   6.537  0.205E-01  0.205E-01
   6.547  0.248E-01  0.248E-01
   6.557  0.295E-01  0.295E-01
   6.567  0.349E-01  0.349E-01
   6.577  0.408E-01  0.408E-01
   6.587  0.472E-01  0.472E-01
   6.597  0.541E-01  0.541E-01
   6.607  0.614E-01  0.614E-01
   6.617  0.690E-01  0.690E-01
   6.627  0.767E-01  0.767E-01
   6.637  0.845E-01  0.845E-01
   6.647  0.921E-01  0.921E-01
   6.657  0.994E-01  0.994E-01
   6.667  0.106E+00  0.106E+00
   6.677  0.113E+00  0.113E+00
   6.687  0.118E+00  0.118E+00
   6.697  0.123E+00  0.123E+00
   6.707  0.127E+00  0.127E+00
   6.717  0.129E+00  0.129E+00
   6.727  0.131E+00  0.131E+00
   6.737  0.132E+00  0.132E+00
   6.747  0.132E+00  0.132E+00
   6.757  0.131E+00  0.131E+00
   6.767  0.129E+00  0.129E+00
   6.777  0.126E+00  0.126E+00
   6.787  0.123E+00  0.123E+00
   6.797  0.119E+00  0.119E+00
   6.807  0.114E+00  0.114E+00
   6.817  0.110E+00  0.110E+00
   6.827  0.105E+00  0.105E+00
   6.837  0.998E-01  0.998E-01
   6.847  0.947E-01  0.947E-01
   6.857  0.895E-01  0.895E-01
   6.867  0.843E-01  0.843E-01
   6.877  0.791E-01  0.791E-01
   6.887  0.739E-01  0.739E-01
   6.897  0.688E-01  0.688E-01
   6.907  0.637E-01  0.637E-01
   6.917  0.588E-01  0.588E-01
   6.927  0.539E-01  0.539E-01
   6.937  0.491E-01  0.491E-01
   6.947  0.444E-01  0.444E-01
   6.957  0.400E-01  0.400E-01
   6.967  0.357E-01  0.357E-01
   6.977  0.316E-01  0.316E-01
   6.987  0.278E-01  0.278E-01
   6.997  0.242E-01  0.242E-01
   7.007  0.210E-01  0.210E-01
   7.017  0.180E-01  0.180E-01
   7.027  0.153E-01  0.153E-01
   7.037  0.129E-01  0.129E-01
   7.047  0.108E-01  0.108E-01
   7.057  0.893E-02  0.893E-02
   7.067  0.735E-02  0.735E-02
   7.077  0.600E-02  0.600E-02
   7.087  0.488E-02  0.488E-02
   7.097  0.394E-02  0.394E-02
   7.107  0.318E-02  0.318E-02
   7.117  0.256E-02  0.256E-02
   7.127  0.206E-02  0.206E-02
   7.137  0.166E-02  0.166E-02
   7.147  0.135E-02  0.135E-02
   7.157  0.111E-02  0.111E-02
   7.167  0.915E-03  0.915E-03
   7.177  0.765E-03  0.765E-03
   7.187  0.648E-03  0.648E-03
   7.197  0.554E-03  0.554E-03
   7.207  0.478E-03  0.478E-03
   7.217  0.416E-03  0.416E-03
   7.227  0.364E-03  0.364E-03
   7.237  0.320E-03  0.320E-03
   7.247  0.281E-03  0.281E-03
   7.257  0.248E-03  0.248E-03
   7.267  0.218E-03  0.218E-03
   7.277  0.191E-03  0.191E-03
   7.287  0.169E-03  0.169E-03
   7.297  0.149E-03  0.149E-03
   7.307  0.133E-03  0.133E-03
   7.317  0.120E-03  0.120E-03
   7.327  0.111E-03  0.111E-03
   7.337  0.104E-03  0.104E-03
   7.347  0.102E-03  0.102E-03
   7.357  0.102E-03  0.102E-03
   7.367  0.106E-03  0.106E-03
   7.377  0.113E-03  0.113E-03
   7.387  0.123E-03  0.123E-03
   7.397  0.136E-03  0.136E-03
   7.407  0.151E-03  0.151E-03
   7.417  0.168E-03  0.168E-03
   7.427  0.188E-03  0.188E-03
   7.437  0.208E-03  0.208E-03
   7.447  0.230E-03  0.230E-03
   7.457  0.252E-03  0.252E-03
   7.467  0.275E-03  0.275E-03
   7.477  0.298E-03  0.298E-03
   7.487  0.320E-03  0.320E-03
   7.497  0.342E-03  0.342E-03
   7.507  0.363E-03  0.363E-03
   7.517  0.383E-03  0.383E-03
   7.527  0.403E-03  0.403E-03
   7.537  0.421E-03  0.421E-03
   7.547  0.440E-03  0.440E-03
   7.557  0.458E-03  0.458E-03
   7.567  0.478E-03  0.478E-03
   7.577  0.498E-03  0.498E-03
   7.587  0.522E-03  0.522E-03
   7.597  0.548E-03  0.548E-03
   7.607  0.579E-03  0.579E-03
   7.617  0.617E-03  0.617E-03
   7.627  0.662E-03  0.662E-03
   7.637  0.717E-03  0.717E-03
   7.647  0.784E-03  0.784E-03
   7.657  0.865E-03  0.865E-03
   7.667  0.963E-03  0.963E-03
   7.677  0.108E-02  0.108E-02
   7.687  0.122E-02  0.122E-02
   7.697  0.139E-02  0.139E-02
   7.707  0.159E-02  0.159E-02
   7.717  0.182E-02  0.182E-02
   7.727  0.209E-02  0.209E-02
   7.737  0.240E-02  0.240E-02
   7.747  0.274E-02  0.274E-02
   7.757  0.314E-02  0.314E-02
   7.767  0.357E-02  0.357E-02
   7.777  0.404E-02  0.404E-02
   7.787  0.455E-02  0.455E-02
   7.797  0.509E-02  0.509E-02
   7.807  0.565E-02  0.565E-02
   7.817  0.623E-02  0.623E-02
   7.827  0.682E-02  0.682E-02
   7.837  0.741E-02  0.741E-02
   7.847  0.799E-02  0.799E-02
   7.857  0.854E-02  0.854E-02
   7.867  0.907E-02  0.907E-02
   7.877  0.957E-02  0.957E-02
   7.887  0.100E-01  0.100E-01
   7.897  0.104E-01  0.104E-01
   7.907  0.108E-01  0.108E-01
   7.917  0.112E-01  0.112E-01
   7.927  0.116E-01  0.116E-01
   7.937  0.120E-01  0.120E-01
   7.947  0.124E-01  0.124E-01
   7.957  0.130E-01  0.130E-01
   7.967  0.136E-01  0.136E-01
   7.977  0.144E-01  0.144E-01
   7.987  0.154E-01  0.154E-01
   7.997  0.167E-01  0.167E-01
   8.007  0.182E-01  0.182E-01
   8.017  0.201E-01  0.201E-01
   8.027  0.223E-01  0.223E-01
   8.037  0.249E-01  0.249E-01
   8.047  0.279E-01  0.279E-01
   8.057  0.312E-01  0.312E-01
   8.067  0.350E-01  0.350E-01
   8.077  0.391E-01  0.391E-01
   8.087  0.436E-01  0.436E-01
   8.097  0.483E-01  0.483E-01
   8.107  0.533E-01  0.533E-01
   8.117  0.584E-01  0.584E-01
   8.127  0.635E-01  0.635E-01
   8.137  0.686E-01  0.686E-01
   8.147  0.736E-01  0.736E-01
   8.157  0.783E-01  0.783E-01
   8.167  0.827E-01  0.827E-01
   8.177  0.865E-01  0.865E-01
   8.187  0.899E-01  0.899E-01
   8.197  0.925E-01  0.925E-01
   8.207  0.945E-01  0.945E-01
   8.217  0.957E-01  0.957E-01
   8.227  0.960E-01  0.960E-01
   8.237  0.955E-01  0.955E-01
   8.247  0.942E-01  0.942E-01
   8.257  0.921E-01  0.921E-01
   8.267  0.892E-01  0.892E-01
   8.277  0.857E-01  0.857E-01
   8.287  0.815E-01  0.815E-01
   8.297  0.768E-01  0.768E-01
   8.307  0.718E-01  0.718E-01
   8.317  0.664E-01  0.664E-01
   8.327  0.609E-01  0.609E-01
   8.337  0.553E-01  0.553E-01
   8.347  0.497E-01  0.497E-01
   8.357  0.443E-01  0.443E-01
   8.367  0.391E-01  0.391E-01
   8.377  0.342E-01  0.342E-01
   8.387  0.296E-01  0.296E-01
   8.397  0.254E-01  0.254E-01
   8.407  0.216E-01  0.216E-01
   8.417  0.181E-01  0.181E-01
   8.427  0.151E-01  0.151E-01
   8.437  0.125E-01  0.125E-01
   8.447  0.103E-01  0.103E-01
   8.457  0.840E-02  0.840E-02
   8.467  0.683E-02  0.683E-02
   8.477  0.553E-02  0.553E-02
   8.487  0.448E-02  0.448E-02
   8.497  0.364E-02  0.364E-02
   8.507  0.298E-02  0.298E-02
   8.517  0.247E-02  0.247E-02
   8.527  0.209E-02  0.209E-02
   8.537  0.181E-02  0.181E-02
   8.547  0.160E-02  0.160E-02
   8.557  0.146E-02  0.146E-02
   8.567  0.136E-02  0.136E-02
   8.577  0.129E-02  0.129E-02
   8.587  0.125E-02  0.125E-02
   8.597  0.121E-02  0.121E-02
   8.607  0.118E-02  0.118E-02
   8.617  0.116E-02  0.116E-02
   8.627  0.113E-02  0.113E-02
   8.637  0.110E-02  0.110E-02
   8.647  0.107E-02  0.107E-02
   8.657  0.103E-02  0.103E-02
   8.667  0.980E-03  0.980E-03
   8.677  0.931E-03  0.931E-03
   8.687  0.879E-03  0.879E-03
   8.697  0.825E-03  0.825E-03
   8.707  0.772E-03  0.772E-03
   8.717  0.720E-03  0.720E-03
   8.727  0.671E-03  0.671E-03
   8.737  0.626E-03  0.626E-03
   8.747  0.586E-03  0.586E-03
   8.757  0.551E-03  0.551E-03
   8.767  0.523E-03  0.523E-03
   8.777  0.502E-03  0.502E-03
   8.787  0.487E-03  0.487E-03
   8.797  0.479E-03  0.479E-03
   8.807  0.478E-03  0.478E-03
   8.817  0.483E-03  0.483E-03
   8.827  0.496E-03  0.496E-03
   8.837  0.517E-03  0.517E-03
   8.847  0.547E-03  0.547E-03
   8.857  0.588E-03  0.588E-03
   8.867  0.641E-03  0.641E-03
   8.877  0.709E-03  0.709E-03
   8.887  0.797E-03  0.797E-03
   8.897  0.908E-03  0.908E-03
   8.907  0.105E-02  0.105E-02
   8.917  0.122E-02  0.122E-02
   8.927  0.143E-02  0.143E-02
   8.937  0.169E-02  0.169E-02
   8.947  0.201E-02  0.201E-02
   8.957  0.238E-02  0.238E-02
   8.967  0.282E-02  0.282E-02
   8.977  0.333E-02  0.333E-02
   8.987  0.392E-02  0.392E-02
   8.997  0.457E-02  0.457E-02
   9.007  0.530E-02  0.530E-02
   9.017  0.610E-02  0.610E-02
   9.027  0.696E-02  0.696E-02
   9.037  0.787E-02  0.787E-02
   9.047  0.882E-02  0.882E-02
   9.057  0.980E-02  0.980E-02
   9.067  0.108E-01  0.108E-01
   9.077  0.117E-01  0.117E-01
   9.087  0.127E-01  0.127E-01
   9.097  0.135E-01  0.135E-01
   9.107  0.143E-01  0.143E-01
   9.117  0.150E-01  0.150E-01
   9.127  0.156E-01  0.156E-01
   9.137  0.160E-01  0.160E-01
   9.147  0.163E-01  0.163E-01
   9.157  0.165E-01  0.165E-01
   9.167  0.165E-01  0.165E-01
   9.177  0.164E-01  0.164E-01
   9.187  0.161E-01  0.161E-01
   9.197  0.158E-01  0.158E-01
   9.207  0.153E-01  0.153E-01
   9.217  0.148E-01  0.148E-01
   9.227  0.142E-01  0.142E-01
   9.237  0.135E-01  0.135E-01
   9.247  0.129E-01  0.129E-01
   9.257  0.122E-01  0.122E-01
   9.267  0.117E-01  0.117E-01
   9.277  0.112E-01  0.112E-01
   9.287  0.108E-01  0.108E-01
   9.297  0.105E-01  0.105E-01
   9.307  0.104E-01  0.104E-01
   9.317  0.105E-01  0.105E-01
   9.327  0.109E-01  0.109E-01
   9.337  0.114E-01  0.114E-01
   9.347  0.123E-01  0.123E-01
   9.357  0.135E-01  0.135E-01
   9.367  0.150E-01  0.150E-01
   9.377  0.168E-01  0.168E-01
   9.387  0.190E-01  0.190E-01
   9.397  0.214E-01  0.214E-01
   9.407  0.242E-01  0.242E-01
   9.417  0.272E-01  0.272E-01
   9.427  0.305E-01  0.305E-01
   9.437  0.338E-01  0.338E-01
   9.447  0.373E-01  0.373E-01
   9.457  0.408E-01  0.408E-01
   9.467  0.442E-01  0.442E-01
   9.477  0.474E-01  0.474E-01
   9.487  0.503E-01  0.503E-01
   9.497  0.528E-01  0.528E-01
   9.507  0.550E-01  0.550E-01
   9.517  0.566E-01  0.566E-01
   9.527  0.576E-01  0.576E-01
   9.537  0.581E-01  0.581E-01
   9.547  0.580E-01  0.580E-01
   9.557  0.572E-01  0.572E-01
   9.567  0.558E-01  0.558E-01
   9.577  0.540E-01  0.540E-01
   9.587  0.516E-01  0.516E-01
   9.597  0.488E-01  0.488E-01
   9.607  0.457E-01  0.457E-01
   9.617  0.424E-01  0.424E-01
   9.627  0.390E-01  0.390E-01
   9.637  0.355E-01  0.355E-01
   9.647  0.320E-01  0.320E-01
   9.657  0.287E-01  0.287E-01
   9.667  0.256E-01  0.256E-01
   9.677  0.227E-01  0.227E-01
   9.687  0.201E-01  0.201E-01
   9.697  0.178E-01  0.178E-01
   9.707  0.159E-01  0.159E-01
   9.717  0.143E-01  0.143E-01
   9.727  0.130E-01  0.130E-01
   9.737  0.121E-01  0.121E-01
   9.747  0.114E-01  0.114E-01
   9.757  0.110E-01  0.110E-01
   9.767  0.108E-01  0.108E-01
   9.777  0.108E-01  0.108E-01
   9.787  0.110E-01  0.110E-01
   9.797  0.112E-01  0.112E-01
   9.807  0.115E-01  0.115E-01
   9.817  0.118E-01  0.118E-01
   9.827  0.121E-01  0.121E-01
   9.837  0.124E-01  0.124E-01
   9.847  0.126E-01  0.126E-01
   9.857  0.127E-01  0.127E-01
   9.867  0.127E-01  0.127E-01
   9.877  0.126E-01  0.126E-01
   9.887  0.123E-01  0.123E-01
   9.897  0.120E-01  0.120E-01
   9.907  0.115E-01  0.115E-01
   9.917  0.110E-01  0.110E-01
   9.927  0.103E-01  0.103E-01
   9.937  0.961E-02  0.961E-02
   9.947  0.886E-02  0.886E-02
   9.957  0.808E-02  0.808E-02
   9.967  0.730E-02  0.730E-02
   9.977  0.651E-02  0.651E-02
   9.987  0.575E-02  0.575E-02
   9.997  0.503E-02  0.503E-02
  10.007  0.434E-02  0.434E-02
  10.017  0.372E-02  0.372E-02
  10.027  0.314E-02  0.314E-02
  10.037  0.263E-02  0.263E-02
  10.047  0.218E-02  0.218E-02
  10.057  0.178E-02  0.178E-02
  10.067  0.144E-02  0.144E-02
  10.077  0.116E-02  0.116E-02
  10.087  0.918E-03  0.918E-03
  10.097  0.720E-03  0.720E-03
  10.107  0.559E-03  0.559E-03
  10.117  0.429E-03  0.429E-03
  10.127  0.326E-03  0.326E-03
  10.137  0.245E-03  0.245E-03
  10.147  0.182E-03  0.182E-03
  10.157  0.134E-03  0.134E-03
  10.167  0.971E-04  0.971E-04
  10.177  0.699E-04  0.699E-04
  10.187  0.497E-04  0.497E-04
  10.197  0.350E-04  0.350E-04
  10.207  0.244E-04  0.244E-04
  10.217  0.168E-04  0.168E-04
  10.227  0.114E-04  0.114E-04
  10.237  0.772E-05  0.772E-05
  10.247  0.515E-05  0.515E-05
  10.257  0.340E-05  0.340E-05
  10.267  0.222E-05  0.222E-05
  10.277  0.143E-05  0.143E-05
